Data from USB2G147421__35__12-53-40-424.txt Node

Date: Tue Jun 28 12:53:40 UTC 2022
User: yes
Spectrometer: USB2G14742
Trigger mode: 4
Integration Time (sec): 2.000000E0
Scans to average: 1
Electric dark correction enabled: true
Nonlinearity correction enabled: false
Boxcar width: 0
XAxis mode: Wavelengths
Number of Pixels in Spectrum: 2048
>>>>>Begin Spectral Data<<<<<
339.471	-152.17
339.856	-4.17
340.241	0.83
340.625	-0.17
341.01	-5.17
341.395	39.83
341.779	9.83
342.163	12.83
342.548	14.83
342.932	11.83
343.317	4.83
343.701	8.83
344.085	5.83
344.469	3.83
344.853	7.83
345.238	3.83
345.622	8.83
346.006	27.83
346.39	6.83
346.774	10.83
347.157	8.83
347.541	6.83
347.925	2.83
348.309	3.83
348.693	27.83
349.076	11.83
349.46	24.83
349.843	16.83
350.227	11.83
350.61	66.83
350.994	20.83
351.377	11.83
351.761	36.83
352.144	24.83
352.527	7.83
352.91	11.83
353.294	10.83
353.677	13.83
354.06	11.83
354.443	92.83
354.826	7.83
355.209	6.83
355.592	5.83
355.975	5.83
356.358	18.83
356.74	15.83
357.123	9.83
357.506	13.83
357.889	7.83
358.271	16.83
358.654	8.83
359.036	11.83
359.419	9.83
359.801	13.83
360.184	13.83
360.566	15.83
360.948	29.83
361.331	9.83
361.713	9.83
362.095	20.83
362.477	7.83
362.859	5.83
363.241	13.83
363.623	11.83
364.005	20.83
364.387	25.83
364.769	12.83
365.151	13.83
365.533	33.83
365.915	27.83
366.296	9.83
366.678	63.83
367.06	0.83
367.441	11.83
367.823	26.83
368.204	13.83
368.586	8.83
368.967	13.83
369.348	17.83
369.73	16.83
370.111	9.83
370.492	5.83
370.873	16.83
371.255	40.83
371.636	11.83
372.017	18.83
372.398	22.83
372.779	15.83
373.16	15.83
373.54	10.83
373.921	14.83
374.302	6.83
374.683	13.83
375.064	12.83
375.444	5.83
375.825	16.83
376.205	10.83
376.586	17.83
376.966	14.83
377.347	18.83
377.727	11.83
378.108	8.83
378.488	12.83
378.868	5.83
379.248	17.83
379.629	11.83
380.009	40.83
380.389	12.83
380.769	16.83
381.149	11.83
381.529	22.83
381.909	31.83
382.289	14.83
382.668	94.83
383.048	14.83
383.428	7.83
383.808	6.83
384.187	4.83
384.567	18.83
384.946	5.83
385.326	15.83
385.705	18.83
386.085	6.83
386.464	24.83
386.844	21.83
387.223	15.83
387.602	13.83
387.981	18.83
388.361	10.83
388.74	16.83
389.119	8.83
389.498	15.83
389.877	16.83
390.256	5.83
390.635	20.83
391.013	16.83
391.392	5.83
391.771	49.83
392.15	16.83
392.528	15.83
392.907	4.83
393.286	16.83
393.664	19.83
394.043	8.83
394.421	19.83
394.8	15.83
395.178	10.83
395.556	14.83
395.935	16.83
396.313	13.83
396.691	18.83
397.069	10.83
397.447	4.83
397.825	19.83
398.203	13.83
398.581	21.83
398.959	13.83
399.337	18.83
399.715	75.83
400.093	6.83
400.471	8.83
400.848	11.83
401.226	16.83
401.604	9.83
401.981	14.83
402.359	16.83
402.736	7.83
403.114	46.83
403.491	21.83
403.868	23.83
404.246	54.83
404.623	28.83
405	14.83
405.377	10.83
405.755	14.83
406.132	3.83
406.509	5.83
406.886	16.83
407.263	22.83
407.64	7.83
408.017	17.83
408.393	17.83
408.77	19.83
409.147	13.83
409.524	15.83
409.9	13.83
410.277	17.83
410.653	17.83
411.03	18.83
411.406	5.83
411.783	37.83
412.159	17.83
412.536	22.83
412.912	6.83
413.288	23.83
413.664	4.83
414.04	11.83
414.417	19.83
414.793	10.83
415.169	12.83
415.545	28.83
415.921	20.83
416.297	27.83
416.672	7.83
417.048	13.83
417.424	7.83
417.8	40.83
418.175	12.83
418.551	4.83
418.927	10.83
419.302	74.83
419.678	28.83
420.053	11.83
420.429	22.83
420.804	14.83
421.179	5.83
421.554	11.83
421.93	9.83
422.305	66.83
422.68	18.83
423.055	15.83
423.43	11.83
423.805	11.83
424.18	12.83
424.555	16.83
424.93	13.83
425.305	9.83
425.68	9.83
426.054	9.83
426.429	18.83
426.804	17.83
427.178	23.83
427.553	9.83
427.927	67.83
428.302	16.83
428.676	15.83
429.051	16.83
429.425	6.83
429.799	22.83
430.174	16.83
430.548	10.83
430.922	25.83
431.296	10.83
431.67	23.83
432.044	23.83
432.418	8.83
432.792	7.83
433.166	7.83
433.54	20.83
433.914	29.83
434.287	18.83
434.661	11.83
435.035	16.83
435.408	11.83
435.782	16.83
436.156	21.83
436.529	54.83
436.903	15.83
437.276	8.83
437.649	33.83
438.023	58.83
438.396	13.83
438.769	15.83
439.142	15.83
439.515	29.83
439.889	25.83
440.262	23.83
440.635	35.83
441.008	24.83
441.38	21.83
441.753	20.83
442.126	17.83
442.499	17.83
442.872	73.83
443.244	54.83
443.617	12.83
443.99	26.83
444.362	26.83
444.735	13.83
445.107	24.83
445.48	44.83
445.852	16.83
446.224	21.83
446.597	18.83
446.969	28.83
447.341	32.83
447.713	26.83
448.085	10.83
448.457	25.83
448.829	17.83
449.201	36.83
449.573	27.83
449.945	24.83
450.317	20.83
450.689	25.83
451.061	19.83
451.432	21.83
451.804	27.83
452.176	49.83
452.547	29.83
452.919	19.83
453.29	23.83
453.662	27.83
454.033	21.83
454.404	33.83
454.776	26.83
455.147	20.83
455.518	23.83
455.889	30.83
456.26	21.83
456.631	33.83
457.002	23.83
457.373	21.83
457.744	41.83
458.115	27.83
458.486	19.83
458.857	19.83
459.228	21.83
459.598	18.83
459.969	16.83
460.34	35.83
460.71	16.83
461.081	20.83
461.451	29.83
461.822	30.83
462.192	10.83
462.563	15.83
462.933	23.83
463.303	18.83
463.673	29.83
464.044	23.83
464.414	22.83
464.784	27.83
465.154	14.83
465.524	19.83
465.894	26.83
466.264	14.83
466.634	27.83
467.003	26.83
467.373	15.83
467.743	30.83
468.113	27.83
468.482	18.83
468.852	23.83
469.221	24.83
469.591	17.83
469.96	36.83
470.33	15.83
470.699	79.83
471.068	12.83
471.438	20.83
471.807	26.83
472.176	28.83
472.545	41.83
472.914	13.83
473.283	26.83
473.652	19.83
474.021	39.83
474.39	24.83
474.759	24.83
475.128	16.83
475.497	11.83
475.865	9.83
476.234	26.83
476.603	14.83
476.971	10.83
477.34	19.83
477.708	30.83
478.077	21.83
478.445	15.83
478.814	19.83
479.182	20.83
479.55	20.83
479.919	16.83
480.287	21.83
480.655	37.83
481.023	12.83
481.391	16.83
481.759	20.83
482.127	18.83
482.495	17.83
482.863	24.83
483.231	14.83
483.598	22.83
483.966	27.83
484.334	21.83
484.701	25.83
485.069	24.83
485.437	48.83
485.804	19.83
486.172	25.83
486.539	23.83
486.906	15.83
487.274	30.83
487.641	22.83
488.008	24.83
488.375	37.83
488.743	24.83
489.11	22.83
489.477	13.83
489.844	17.83
490.211	20.83
490.578	17.83
490.945	34.83
491.311	25.83
491.678	32.83
492.045	45.83
492.412	16.83
492.778	23.83
493.145	26.83
493.511	17.83
493.878	31.83
494.244	26.83
494.611	21.83
494.977	24.83
495.344	20.83
495.71	67.83
496.076	17.83
496.442	33.83
496.808	14.83
497.175	31.83
497.541	20.83
497.907	33.83
498.273	45.83
498.638	46.83
499.004	20.83
499.37	27.83
499.736	61.83
500.102	16.83
500.467	40.83
500.833	26.83
501.199	32.83
501.564	30.83
501.93	33.83
502.295	42.83
502.661	25.83
503.026	36.83
503.391	30.83
503.757	30.83
504.122	22.83
504.487	26.83
504.852	46.83
505.217	36.83
505.582	27.83
505.947	38.83
506.312	35.83
506.677	28.83
507.042	29.83
507.407	44.83
507.772	62.83
508.136	55.83
508.501	42.83
508.866	33.83
509.23	56.83
509.595	38.83
509.959	35.83
510.324	30.83
510.688	50.83
511.053	46.83
511.417	98.83
511.781	39.83
512.146	35.83
512.51	62.83
512.874	89.83
513.238	35.83
513.602	38.83
513.966	51.83
514.33	43.83
514.694	37.83
515.058	36.83
515.422	58.83
515.785	57.83
516.149	41.83
516.513	62.83
516.876	42.83
517.24	41.83
517.604	40.83
517.967	50.83
518.331	35.83
518.694	48.83
519.057	53.83
519.421	46.83
519.784	53.83
520.147	64.83
520.51	69.83
520.873	42.83
521.237	55.83
521.6	58.83
521.963	48.83
522.326	51.83
522.688	39.83
523.051	51.83
523.414	57.83
523.777	123.83
524.14	49.83
524.502	55.83
524.865	49.83
525.228	59.83
525.59	60.83
525.953	57.83
526.315	54.83
526.677	57.83
527.04	96.83
527.402	53.83
527.764	53.83
528.127	51.83
528.489	61.83
528.851	59.83
529.213	49.83
529.575	52.83
529.937	76.83
530.299	52.83
530.661	59.83
531.023	61.83
531.384	59.83
531.746	51.83
532.108	59.83
532.47	57.83
532.831	61.83
533.193	57.83
533.554	64.83
533.916	53.83
534.277	68.83
534.639	56.83
535	60.83
535.361	69.83
535.723	75.83
536.084	61.83
536.445	90.83
536.806	131.83
537.167	90.83
537.528	65.83
537.889	82.83
538.25	70.83
538.611	66.83
538.972	64.83
539.333	59.83
539.693	92.83
540.054	253.83
540.415	60.83
540.775	61.83
541.136	67.83
541.496	70.83
541.857	79.83
542.217	73.83
542.578	73.83
542.938	97.83
543.298	78.83
543.658	70.83
544.019	79.83
544.379	73.83
544.739	70.83
545.099	71.83
545.459	76.83
545.819	73.83
546.179	76.83
546.539	109.83
546.899	75.83
547.258	83.83
547.618	78.83
547.978	94.83
548.337	86.83
548.697	78.83
549.056	95.83
549.416	79.83
549.775	80.83
550.135	86.83
550.494	83.83
550.854	101.83
551.213	84.83
551.572	86.83
551.931	87.83
552.29	87.83
552.649	87.83
553.008	83.83
553.367	124.83
553.726	100.83
554.085	86.83
554.444	184.83
554.803	75.83
555.162	99.83
555.52	80.83
555.879	93.83
556.238	95.83
556.596	81.83
556.955	100.83
557.313	88.83
557.672	96.83
558.03	76.83
558.388	90.83
558.747	109.83
559.105	88.83
559.463	96.83
559.821	82.83
560.179	89.83
560.537	88.83
560.896	89.83
561.253	89.83
561.611	88.83
561.969	96.83
562.327	90.83
562.685	98.83
563.043	83.83
563.4	86.83
563.758	92.83
564.116	111.83
564.473	94.83
564.831	84.83
565.188	94.83
565.546	127.83
565.903	96.83
566.26	100.83
566.617	100.83
566.975	112.83
567.332	103.83
567.689	86.83
568.046	102.83
568.403	114.83
568.76	103.83
569.117	103.83
569.474	103.83
569.831	101.83
570.188	108.83
570.544	96.83
570.901	102.83
571.258	126.83
571.614	99.83
571.971	111.83
572.328	100.83
572.684	105.83
573.04	126.83
573.397	100.83
573.753	120.83
574.109	109.83
574.466	111.83
574.822	105.83
575.178	115.83
575.534	107.83
575.89	114.83
576.246	111.83
576.602	118.83
576.958	117.83
577.314	109.83
577.67	106.83
578.026	109.83
578.381	109.83
578.737	101.83
579.093	112.83
579.448	115.83
579.804	132.83
580.159	111.83
580.515	104.83
580.87	112.83
581.226	118.83
581.581	134.83
581.936	124.83
582.291	109.83
582.647	107.83
583.002	130.83
583.357	114.83
583.712	114.83
584.067	101.83
584.422	111.83
584.777	113.83
585.131	115.83
585.486	114.83
585.841	110.83
586.196	136.83
586.55	103.83
586.905	113.83
587.26	102.83
587.614	97.83
587.969	129.83
588.323	110.83
588.677	123.83
589.032	116.83
589.386	125.83
589.74	134.83
590.094	129.83
590.449	129.83
590.803	142.83
591.157	116.83
591.511	146.83
591.865	122.83
592.219	128.83
592.573	104.83
592.926	107.83
593.28	115.83
593.634	140.83
593.988	106.83
594.341	99.83
594.695	121.83
595.048	106.83
595.402	99.83
595.755	103.83
596.109	125.83
596.462	121.83
596.815	108.83
597.169	122.83
597.522	110.83
597.875	150.83
598.228	118.83
598.581	101.83
598.934	143.83
599.287	103.83
599.64	108.83
599.993	107.83
600.346	111.83
600.698	99.83
601.051	109.83
601.404	100.83
601.757	102.83
602.109	108.83
602.462	111.83
602.814	95.83
603.167	109.83
603.519	104.83
603.871	110.83
604.224	104.83
604.576	96.83
604.928	126.83
605.28	103.83
605.633	99.83
605.985	107.83
606.337	107.83
606.689	95.83
607.041	117.83
607.392	97.83
607.744	106.83
608.096	97.83
608.448	93.83
608.8	93.83
609.151	88.83
609.503	89.83
609.854	97.83
610.206	126.83
610.557	103.83
610.909	93.83
611.26	112.83
611.612	90.83
611.963	80.83
612.314	112.83
612.665	95.83
613.016	95.83
613.367	90.83
613.719	107.83
614.07	86.83
614.42	79.83
614.771	80.83
615.122	99.83
615.473	88.83
615.824	82.83
616.174	100.83
616.525	88.83
616.876	82.83
617.226	84.83
617.577	76.83
617.927	78.83
618.278	75.83
618.628	150.83
618.979	94.83
619.329	82.83
619.679	100.83
620.029	93.83
620.379	72.83
620.729	93.83
621.08	86.83
621.43	96.83
621.779	103.83
622.129	80.83
622.479	83.83
622.829	78.83
623.179	75.83
623.529	68.83
623.878	74.83
624.228	71.83
624.577	70.83
624.927	71.83
625.276	64.83
625.626	82.83
625.975	89.83
626.325	77.83
626.674	114.83
627.023	65.83
627.372	80.83
627.722	98.83
628.071	93.83
628.42	83.83
628.769	112.83
629.118	80.83
629.467	69.83
629.815	84.83
630.164	61.83
630.513	80.83
630.862	106.83
631.21	68.83
631.559	61.83
631.908	61.83
632.256	60.83
632.605	62.83
632.953	66.83
633.302	55.83
633.65	79.83
633.998	126.83
634.346	83.83
634.695	59.83
635.043	63.83
635.391	83.83
635.739	50.83
636.087	68.83
636.435	76.83
636.783	65.83
637.131	49.83
637.479	69.83
637.826	51.83
638.174	57.83
638.522	59.83
638.869	96.83
639.217	53.83
639.564	58.83
639.912	52.83
640.259	61.83
640.607	53.83
640.954	63.83
641.301	66.83
641.649	54.83
641.996	52.83
642.343	66.83
642.69	61.83
643.037	63.83
643.384	74.83
643.731	51.83
644.078	84.83
644.425	47.83
644.772	53.83
645.119	46.83
645.465	43.83
645.812	51.83
646.159	59.83
646.505	57.83
646.852	66.83
647.198	46.83
647.545	52.83
647.891	64.83
648.237	56.83
648.584	60.83
648.93	50.83
649.276	51.83
649.622	63.83
649.969	62.83
650.315	56.83
650.661	55.83
651.007	51.83
651.352	58.83
651.698	42.83
652.044	45.83
652.39	54.83
652.736	47.83
653.081	43.83
653.427	43.83
653.773	52.83
654.118	47.83
654.464	43.83
654.809	47.83
655.154	42.83
655.5	46.83
655.845	38.83
656.19	39.83
656.536	38.83
656.881	41.83
657.226	35.83
657.571	98.83
657.916	35.83
658.261	36.83
658.606	38.83
658.951	27.83
659.295	28.83
659.64	26.83
659.985	34.83
660.33	27.83
660.674	37.83
661.019	42.83
661.363	39.83
661.708	36.83
662.052	25.83
662.397	31.83
662.741	32.83
663.085	27.83
663.429	44.83
663.774	72.83
664.118	25.83
664.462	29.83
664.806	21.83
665.15	49.83
665.494	32.83
665.838	27.83
666.182	34.83
666.526	35.83
666.869	22.83
667.213	29.83
667.557	35.83
667.9	42.83
668.244	33.83
668.587	37.83
668.931	23.83
669.274	26.83
669.618	23.83
669.961	32.83
670.304	29.83
670.648	31.83
670.991	18.83
671.334	18.83
671.677	19.83
672.02	23.83
672.363	15.83
672.706	31.83
673.049	40.83
673.392	25.83
673.735	27.83
674.077	20.83
674.42	25.83
674.763	16.83
675.105	29.83
675.448	33.83
675.79	21.83
676.133	26.83
676.475	20.83
676.818	23.83
677.16	19.83
677.502	37.83
677.844	40.83
678.187	6.83
678.529	53.83
678.871	33.83
679.213	23.83
679.555	29.83
679.897	24.83
680.239	27.83
680.58	21.83
680.922	32.83
681.264	43.83
681.606	31.83
681.947	28.83
682.289	18.83
682.631	58.83
682.972	24.83
683.313	22.83
683.655	25.83
683.996	20.83
684.338	19.83
684.679	19.83
685.02	13.83
685.361	26.83
685.702	26.83
686.043	28.83
686.384	19.83
686.725	17.83
687.066	30.83
687.407	20.83
687.748	21.83
688.089	35.83
688.43	18.83
688.77	59.83
689.111	28.83
689.451	21.83
689.792	29.83
690.132	24.83
690.473	23.83
690.813	23.83
691.154	26.83
691.494	25.83
691.834	29.83
692.174	20.83
692.515	23.83
692.855	17.83
693.195	30.83
693.535	29.83
693.875	22.83
694.215	23.83
694.554	39.83
694.894	25.83
695.234	21.83
695.574	28.83
695.913	25.83
696.253	24.83
696.593	28.83
696.932	30.83
697.272	23.83
697.611	19.83
697.95	30.83
698.29	13.83
698.629	20.83
698.968	18.83
699.307	14.83
699.647	20.83
699.986	36.83
700.325	22.83
700.664	15.83
701.003	27.83
701.341	21.83
701.68	13.83
702.019	12.83
702.358	16.83
702.697	20.83
703.035	26.83
703.374	24.83
703.712	28.83
704.051	12.83
704.389	26.83
704.728	19.83
705.066	19.83
705.404	25.83
705.743	23.83
706.081	21.83
706.419	16.83
706.757	24.83
707.095	38.83
707.433	27.83
707.771	23.83
708.109	12.83
708.447	29.83
708.785	28.83
709.123	27.83
709.46	26.83
709.798	17.83
710.136	32.83
710.473	28.83
710.811	32.83
711.148	33.83
711.486	25.83
711.823	17.83
712.16	19.83
712.498	19.83
712.835	37.83
713.172	22.83
713.509	23.83
713.846	74.83
714.183	37.83
714.52	17.83
714.857	18.83
715.194	17.83
715.531	16.83
715.868	31.83
716.205	13.83
716.541	23.83
716.878	35.83
717.215	15.83
717.551	27.83
717.888	27.83
718.224	77.83
718.561	22.83
718.897	19.83
719.233	14.83
719.57	21.83
719.906	16.83
720.242	12.83
720.578	13.83
720.914	16.83
721.25	22.83
721.586	7.83
721.922	10.83
722.258	30.83
722.594	14.83
722.929	18.83
723.265	17.83
723.601	20.83
723.937	32.83
724.272	13.83
724.608	21.83
724.943	15.83
725.279	7.83
725.614	15.83
725.949	17.83
726.285	16.83
726.62	41.83
726.955	4.83
727.29	17.83
727.625	13.83
727.96	21.83
728.295	33.83
728.63	23.83
728.965	7.83
729.3	18.83
729.635	60.83
729.97	15.83
730.304	10.83
730.639	15.83
730.974	14.83
731.308	21.83
731.643	2.83
731.977	27.83
732.311	23.83
732.646	10.83
732.98	18.83
733.314	4.83
733.649	21.83
733.983	19.83
734.317	44.83
734.651	15.83
734.985	18.83
735.319	14.83
735.653	17.83
735.987	29.83
736.321	32.83
736.654	10.83
736.988	28.83
737.322	30.83
737.655	22.83
737.989	19.83
738.322	19.83
738.656	12.83
738.989	20.83
739.323	20.83
739.656	22.83
739.989	32.83
740.323	9.83
740.656	13.83
740.989	9.83
741.322	18.83
741.655	25.83
741.988	37.83
742.321	26.83
742.654	14.83
742.987	16.83
743.319	22.83
743.652	26.83
743.985	25.83
744.317	12.83
744.65	10.83
744.983	15.83
745.315	7.83
745.648	16.83
745.98	9.83
746.312	14.83
746.645	16.83
746.977	27.83
747.309	26.83
747.641	15.83
747.973	26.83
748.305	10.83
748.637	10.83
748.969	13.83
749.301	24.83
749.633	18.83
749.965	5.83
750.297	15.83
750.628	23.83
750.96	23.83
751.292	33.83
751.623	15.83
751.955	17.83
752.286	30.83
752.618	11.83
752.949	4.83
753.28	22.83
753.611	8.83
753.943	18.83
754.274	19.83
754.605	20.83
754.936	19.83
755.267	11.83
755.598	26.83
755.929	12.83
756.26	15.83
756.591	134.83
756.921	14.83
757.252	19.83
757.583	13.83
757.913	16.83
758.244	6.83
758.574	20.83
758.905	13.83
759.235	33.83
759.566	3.83
759.896	36.83
760.226	19.83
760.557	7.83
760.887	7.83
761.217	14.83
761.547	30.83
761.877	20.83
762.207	29.83
762.537	14.83
762.867	17.83
763.197	45.83
763.526	9.83
763.856	25.83
764.186	18.83
764.515	4.83
764.845	7.83
765.175	17.83
765.504	20.83
765.833	1.83
766.163	12.83
766.492	11.83
766.821	14.83
767.151	21.83
767.48	9.83
767.809	18.83
768.138	13.83
768.467	10.83
768.796	5.83
769.125	11.83
769.454	9.83
769.783	12.83
770.112	14.83
770.44	19.83
770.769	12.83
771.098	19.83
771.426	14.83
771.755	10.83
772.083	8.83
772.412	10.83
772.74	6.83
773.069	83.83
773.397	21.83
773.725	3.83
774.053	45.83
774.381	19.83
774.71	27.83
775.038	4.83
775.366	9.83
775.693	9.83
776.021	23.83
776.349	12.83
776.677	16.83
777.005	15.83
777.332	17.83
777.66	3.83
777.988	16.83
778.315	20.83
778.643	20.83
778.97	8.83
779.298	9.83
779.625	11.83
779.952	15.83
780.28	20.83
780.607	13.83
780.934	23.83
781.261	18.83
781.588	10.83
781.915	28.83
782.242	21.83
782.569	33.83
782.896	24.83
783.223	22.83
783.549	25.83
783.876	21.83
784.203	7.83
784.529	35.83
784.856	23.83
785.182	21.83
785.509	28.83
785.835	16.83
786.162	16.83
786.488	12.83
786.814	9.83
787.14	23.83
787.466	17.83
787.793	25.83
788.119	7.83
788.445	10.83
788.771	23.83
789.097	12.83
789.422	20.83
789.748	9.83
790.074	9.83
790.4	32.83
790.725	20.83
791.051	78.83
791.376	10.83
791.702	18.83
792.027	20.83
792.353	9.83
792.678	20.83
793.004	29.83
793.329	24.83
793.654	17.83
793.979	15.83
794.304	13.83
794.629	19.83
794.954	12.83
795.279	15.83
795.604	22.83
795.929	17.83
796.254	9.83
796.579	4.83
796.903	74.83
797.228	11.83
797.553	30.83
797.877	11.83
798.202	20.83
798.526	14.83
798.851	7.83
799.175	25.83
799.499	15.83
799.823	12.83
800.148	6.83
800.472	8.83
800.796	9.83
801.12	17.83
801.444	19.83
801.768	15.83
802.092	17.83
802.416	17.83
802.74	25.83
803.063	13.83
803.387	19.83
803.711	92.83
804.034	23.83
804.358	16.83
804.681	22.83
805.005	20.83
805.328	14.83
805.652	5.83
805.975	12.83
