Data from USB2G147421__18__12-43-48-623.txt Node

Date: Tue Jun 28 12:43:48 UTC 2022
User: yes
Spectrometer: USB2G14742
Trigger mode: 4
Integration Time (sec): 2.000000E0
Scans to average: 1
Electric dark correction enabled: true
Nonlinearity correction enabled: false
Boxcar width: 0
XAxis mode: Wavelengths
Number of Pixels in Spectrum: 2048
>>>>>Begin Spectral Data<<<<<
339.471	-151.67
339.856	-6.67
340.241	1.33
340.625	-1.67
341.01	1.33
341.395	40.33
341.779	11.33
342.163	7.33
342.548	14.33
342.932	16.33
343.317	3.33
343.701	11.33
344.085	9.33
344.469	4.33
344.853	7.33
345.238	2.33
345.622	8.33
346.006	21.33
346.39	10.33
346.774	7.33
347.157	12.33
347.541	10.33
347.925	4.33
348.309	12.33
348.693	27.33
349.076	7.33
349.46	23.33
349.843	16.33
350.227	11.33
350.61	63.33
350.994	20.33
351.377	12.33
351.761	31.33
352.144	25.33
352.527	3.33
352.91	4.33
353.294	10.33
353.677	16.33
354.06	14.33
354.443	87.33
354.826	0.33
355.209	6.33
355.592	7.33
355.975	10.33
356.358	18.33
356.74	17.33
357.123	14.33
357.506	12.33
357.889	12.33
358.271	19.33
358.654	6.33
359.036	17.33
359.419	8.33
359.801	15.33
360.184	16.33
360.566	22.33
360.948	27.33
361.331	8.33
361.713	10.33
362.095	20.33
362.477	7.33
362.859	11.33
363.241	13.33
363.623	9.33
364.005	17.33
364.387	16.33
364.769	12.33
365.151	12.33
365.533	33.33
365.915	30.33
366.296	15.33
366.678	58.33
367.06	11.33
367.441	12.33
367.823	27.33
368.204	12.33
368.586	11.33
368.967	20.33
369.348	19.33
369.73	12.33
370.111	14.33
370.492	5.33
370.873	21.33
371.255	46.33
371.636	19.33
372.017	20.33
372.398	18.33
372.779	18.33
373.16	14.33
373.54	7.33
373.921	12.33
374.302	8.33
374.683	14.33
375.064	13.33
375.444	4.33
375.825	17.33
376.205	10.33
376.586	18.33
376.966	13.33
377.347	20.33
377.727	11.33
378.108	15.33
378.488	12.33
378.868	8.33
379.248	13.33
379.629	13.33
380.009	39.33
380.389	14.33
380.769	14.33
381.149	9.33
381.529	22.33
381.909	27.33
382.289	18.33
382.668	93.33
383.048	15.33
383.428	13.33
383.808	10.33
384.187	10.33
384.567	20.33
384.946	10.33
385.326	19.33
385.705	25.33
386.085	5.33
386.464	24.33
386.844	20.33
387.223	12.33
387.602	14.33
387.981	17.33
388.361	13.33
388.74	18.33
389.119	9.33
389.498	17.33
389.877	17.33
390.256	9.33
390.635	19.33
391.013	17.33
391.392	9.33
391.771	49.33
392.15	18.33
392.528	13.33
392.907	8.33
393.286	16.33
393.664	22.33
394.043	10.33
394.421	17.33
394.8	11.33
395.178	9.33
395.556	20.33
395.935	15.33
396.313	11.33
396.691	20.33
397.069	14.33
397.447	10.33
397.825	12.33
398.203	12.33
398.581	25.33
398.959	12.33
399.337	16.33
399.715	71.33
400.093	8.33
400.471	13.33
400.848	12.33
401.226	14.33
401.604	17.33
401.981	7.33
402.359	18.33
402.736	14.33
403.114	42.33
403.491	22.33
403.868	26.33
404.246	56.33
404.623	27.33
405	10.33
405.377	11.33
405.755	19.33
406.132	6.33
406.509	0.33
406.886	19.33
407.263	26.33
407.64	5.33
408.017	12.33
408.393	11.33
408.77	19.33
409.147	16.33
409.524	21.33
409.9	20.33
410.277	22.33
410.653	15.33
411.03	20.33
411.406	7.33
411.783	36.33
412.159	18.33
412.536	24.33
412.912	6.33
413.288	31.33
413.664	8.33
414.04	10.33
414.417	19.33
414.793	15.33
415.169	17.33
415.545	24.33
415.921	17.33
416.297	35.33
416.672	7.33
417.048	12.33
417.424	9.33
417.8	49.33
418.175	10.33
418.551	5.33
418.927	9.33
419.302	79.33
419.678	27.33
420.053	16.33
420.429	24.33
420.804	18.33
421.179	8.33
421.554	14.33
421.93	12.33
422.305	66.33
422.68	19.33
423.055	16.33
423.43	10.33
423.805	11.33
424.18	8.33
424.555	13.33
424.93	17.33
425.305	7.33
425.68	13.33
426.054	20.33
426.429	19.33
426.804	19.33
427.178	21.33
427.553	7.33
427.927	66.33
428.302	15.33
428.676	15.33
429.051	18.33
429.425	7.33
429.799	22.33
430.174	17.33
430.548	9.33
430.922	22.33
431.296	13.33
431.67	23.33
432.044	27.33
432.418	17.33
432.792	11.33
433.166	11.33
433.54	18.33
433.914	25.33
434.287	15.33
434.661	12.33
435.035	17.33
435.408	16.33
435.782	15.33
436.156	21.33
436.529	56.33
436.903	14.33
437.276	10.33
437.649	30.33
438.023	59.33
438.396	11.33
438.769	16.33
439.142	16.33
439.515	29.33
439.889	19.33
440.262	22.33
440.635	33.33
441.008	27.33
441.38	20.33
441.753	18.33
442.126	21.33
442.499	20.33
442.872	73.33
443.244	64.33
443.617	13.33
443.99	24.33
444.362	22.33
444.735	16.33
445.107	26.33
445.48	48.33
445.852	14.33
446.224	17.33
446.597	18.33
446.969	29.33
447.341	32.33
447.713	25.33
448.085	15.33
448.457	26.33
448.829	19.33
449.201	33.33
449.573	27.33
449.945	31.33
450.317	15.33
450.689	24.33
451.061	24.33
451.432	23.33
451.804	29.33
452.176	48.33
452.547	26.33
452.919	23.33
453.29	30.33
453.662	22.33
454.033	20.33
454.404	39.33
454.776	22.33
455.147	22.33
455.518	29.33
455.889	27.33
456.26	25.33
456.631	30.33
457.002	18.33
457.373	20.33
457.744	38.33
458.115	26.33
458.486	30.33
458.857	14.33
459.228	24.33
459.598	20.33
459.969	18.33
460.34	33.33
460.71	19.33
461.081	21.33
461.451	33.33
461.822	29.33
462.192	16.33
462.563	11.33
462.933	24.33
463.303	19.33
463.673	33.33
464.044	26.33
464.414	23.33
464.784	27.33
465.154	27.33
465.524	14.33
465.894	21.33
466.264	15.33
466.634	24.33
467.003	20.33
467.373	17.33
467.743	34.33
468.113	29.33
468.482	20.33
468.852	30.33
469.221	24.33
469.591	22.33
469.96	39.33
470.33	18.33
470.699	83.33
471.068	19.33
471.438	23.33
471.807	33.33
472.176	38.33
472.545	40.33
472.914	15.33
473.283	27.33
473.652	25.33
474.021	36.33
474.39	17.33
474.759	26.33
475.128	13.33
475.497	15.33
475.865	11.33
476.234	20.33
476.603	12.33
476.971	15.33
477.34	12.33
477.708	26.33
478.077	25.33
478.445	18.33
478.814	19.33
479.182	24.33
479.55	21.33
479.919	15.33
480.287	17.33
480.655	34.33
481.023	13.33
481.391	22.33
481.759	22.33
482.127	25.33
482.495	17.33
482.863	22.33
483.231	17.33
483.598	17.33
483.966	30.33
484.334	18.33
484.701	25.33
485.069	29.33
485.437	50.33
485.804	19.33
486.172	19.33
486.539	26.33
486.906	16.33
487.274	29.33
487.641	24.33
488.008	25.33
488.375	44.33
488.743	32.33
489.11	24.33
489.477	8.33
489.844	20.33
490.211	14.33
490.578	17.33
490.945	27.33
491.311	35.33
491.678	27.33
492.045	37.33
492.412	19.33
492.778	25.33
493.145	40.33
493.511	19.33
493.878	28.33
494.244	20.33
494.611	23.33
494.977	23.33
495.344	18.33
495.71	69.33
496.076	13.33
496.442	30.33
496.808	18.33
497.175	27.33
497.541	18.33
497.907	24.33
498.273	38.33
498.638	47.33
499.004	25.33
499.37	26.33
499.736	56.33
500.102	19.33
500.467	33.33
500.833	28.33
501.199	36.33
501.564	31.33
501.93	29.33
502.295	41.33
502.661	31.33
503.026	34.33
503.391	28.33
503.757	36.33
504.122	24.33
504.487	30.33
504.852	47.33
505.217	35.33
505.582	25.33
505.947	41.33
506.312	37.33
506.677	33.33
507.042	33.33
507.407	41.33
507.772	58.33
508.136	53.33
508.501	47.33
508.866	37.33
509.23	56.33
509.595	39.33
509.959	38.33
510.324	31.33
510.688	66.33
511.053	47.33
511.417	97.33
511.781	42.33
512.146	32.33
512.51	65.33
512.874	87.33
513.238	37.33
513.602	38.33
513.966	40.33
514.33	44.33
514.694	44.33
515.058	34.33
515.422	55.33
515.785	54.33
516.149	48.33
516.513	59.33
516.876	48.33
517.24	43.33
517.604	36.33
517.967	48.33
518.331	46.33
518.694	44.33
519.057	48.33
519.421	50.33
519.784	56.33
520.147	62.33
520.51	71.33
520.873	44.33
521.237	57.33
521.6	54.33
521.963	48.33
522.326	51.33
522.688	45.33
523.051	51.33
523.414	57.33
523.777	121.33
524.14	53.33
524.502	56.33
524.865	52.33
525.228	62.33
525.59	54.33
525.953	59.33
526.315	51.33
526.677	57.33
527.04	90.33
527.402	55.33
527.764	55.33
528.127	50.33
528.489	60.33
528.851	59.33
529.213	49.33
529.575	50.33
529.937	70.33
530.299	52.33
530.661	55.33
531.023	58.33
531.384	49.33
531.746	54.33
532.108	62.33
532.47	64.33
532.831	62.33
533.193	57.33
533.554	64.33
533.916	53.33
534.277	63.33
534.639	57.33
535	54.33
535.361	68.33
535.723	79.33
536.084	66.33
536.445	88.33
536.806	131.33
537.167	101.33
537.528	64.33
537.889	82.33
538.25	64.33
538.611	73.33
538.972	66.33
539.333	62.33
539.693	88.33
540.054	117.33
540.415	65.33
540.775	66.33
541.136	70.33
541.496	67.33
541.857	85.33
542.217	73.33
542.578	77.33
542.938	96.33
543.298	71.33
543.658	73.33
544.019	78.33
544.379	72.33
544.739	78.33
545.099	78.33
545.459	75.33
545.819	79.33
546.179	64.33
546.539	108.33
546.899	80.33
547.258	90.33
547.618	86.33
547.978	95.33
548.337	88.33
548.697	77.33
549.056	104.33
549.416	84.33
549.775	85.33
550.135	81.33
550.494	75.33
550.854	106.33
551.213	85.33
551.572	82.33
551.931	96.33
552.29	83.33
552.649	90.33
553.008	86.33
553.367	122.33
553.726	102.33
554.085	86.33
554.444	190.33
554.803	82.33
555.162	93.33
555.52	89.33
555.879	93.33
556.238	87.33
556.596	84.33
556.955	93.33
557.313	97.33
557.672	101.33
558.03	90.33
558.388	90.33
558.747	101.33
559.105	86.33
559.463	92.33
559.821	88.33
560.179	91.33
560.537	84.33
560.896	90.33
561.253	85.33
561.611	84.33
561.969	94.33
562.327	98.33
562.685	100.33
563.043	87.33
563.4	88.33
563.758	93.33
564.116	105.33
564.473	99.33
564.831	93.33
565.188	98.33
565.546	128.33
565.903	103.33
566.26	101.33
566.617	102.33
566.975	109.33
567.332	97.33
567.689	95.33
568.046	114.33
568.403	118.33
568.76	100.33
569.117	100.33
569.474	110.33
569.831	93.33
570.188	107.33
570.544	102.33
570.901	104.33
571.258	131.33
571.614	103.33
571.971	106.33
572.328	105.33
572.684	110.33
573.04	125.33
573.397	101.33
573.753	125.33
574.109	107.33
574.466	113.33
574.822	103.33
575.178	111.33
575.534	112.33
575.89	120.33
576.246	105.33
576.602	115.33
576.958	110.33
577.314	111.33
577.67	106.33
578.026	113.33
578.381	116.33
578.737	104.33
579.093	113.33
579.448	120.33
579.804	142.33
580.159	117.33
580.515	110.33
580.87	116.33
581.226	109.33
581.581	129.33
581.936	126.33
582.291	106.33
582.647	109.33
583.002	135.33
583.357	108.33
583.712	108.33
584.067	107.33
584.422	108.33
584.777	116.33
585.131	108.33
585.486	101.33
585.841	114.33
586.196	130.33
586.55	112.33
586.905	112.33
587.26	102.33
587.614	105.33
587.969	128.33
588.323	113.33
588.677	124.33
589.032	120.33
589.386	121.33
589.74	138.33
590.094	129.33
590.449	135.33
590.803	150.33
591.157	118.33
591.511	140.33
591.865	124.33
592.219	135.33
592.573	117.33
592.926	114.33
593.28	109.33
593.634	149.33
593.988	109.33
594.341	97.33
594.695	109.33
595.048	108.33
595.402	100.33
595.755	97.33
596.109	126.33
596.462	129.33
596.815	110.33
597.169	127.33
597.522	108.33
597.875	155.33
598.228	114.33
598.581	108.33
598.934	136.33
599.287	100.33
599.64	117.33
599.993	113.33
600.346	106.33
600.698	108.33
601.051	107.33
601.404	104.33
601.757	101.33
602.109	111.33
602.462	100.33
602.814	95.33
603.167	100.33
603.519	97.33
603.871	113.33
604.224	112.33
604.576	102.33
604.928	124.33
605.28	97.33
605.633	99.33
605.985	114.33
606.337	98.33
606.689	98.33
607.041	127.33
607.392	95.33
607.744	104.33
608.096	93.33
608.448	97.33
608.8	93.33
609.151	97.33
609.503	96.33
609.854	99.33
610.206	125.33
610.557	109.33
610.909	86.33
611.26	100.33
611.612	97.33
611.963	92.33
612.314	109.33
612.665	96.33
613.016	94.33
613.367	84.33
613.719	111.33
614.07	87.33
614.42	93.33
614.771	82.33
615.122	104.33
615.473	88.33
615.824	90.33
616.174	108.33
616.525	91.33
616.876	71.33
617.226	90.33
617.577	83.33
617.927	84.33
618.278	83.33
618.628	147.33
618.979	95.33
619.329	78.33
619.679	95.33
620.029	98.33
620.379	76.33
620.729	97.33
621.08	92.33
621.43	96.33
621.779	102.33
622.129	80.33
622.479	86.33
622.829	81.33
623.179	83.33
623.529	64.33
623.878	82.33
624.228	75.33
624.577	74.33
624.927	66.33
625.276	72.33
625.626	86.33
625.975	87.33
626.325	74.33
626.674	114.33
627.023	74.33
627.372	70.33
627.722	93.33
628.071	91.33
628.42	79.33
628.769	112.33
629.118	68.33
629.467	70.33
629.815	84.33
630.164	61.33
630.513	82.33
630.862	101.33
631.21	67.33
631.559	71.33
631.908	61.33
632.256	57.33
632.605	60.33
632.953	63.33
633.302	55.33
633.65	83.33
633.998	130.33
634.346	83.33
634.695	58.33
635.043	59.33
635.391	82.33
635.739	52.33
636.087	75.33
636.435	79.33
636.783	67.33
637.131	57.33
637.479	67.33
637.826	59.33
638.174	53.33
638.522	56.33
638.869	107.33
639.217	59.33
639.564	63.33
639.912	52.33
640.259	62.33
640.607	59.33
640.954	70.33
641.301	63.33
641.649	54.33
641.996	64.33
642.343	73.33
642.69	63.33
643.037	62.33
643.384	82.33
643.731	48.33
644.078	88.33
644.425	49.33
644.772	53.33
645.119	44.33
645.465	48.33
645.812	52.33
646.159	55.33
646.505	56.33
646.852	73.33
647.198	39.33
647.545	57.33
647.891	61.33
648.237	60.33
648.584	62.33
648.93	52.33
649.276	54.33
649.622	56.33
649.969	69.33
650.315	56.33
650.661	56.33
651.007	50.33
651.352	58.33
651.698	41.33
652.044	42.33
652.39	58.33
652.736	45.33
653.081	40.33
653.427	51.33
653.773	50.33
654.118	48.33
654.464	40.33
654.809	56.33
655.154	43.33
655.5	49.33
655.845	36.33
656.19	47.33
656.536	41.33
656.881	45.33
657.226	30.33
657.571	96.33
657.916	38.33
658.261	35.33
658.606	39.33
658.951	31.33
659.295	24.33
659.64	30.33
659.985	36.33
660.33	34.33
660.674	36.33
661.019	38.33
661.363	39.33
661.708	45.33
662.052	27.33
662.397	32.33
662.741	32.33
663.085	35.33
663.429	35.33
663.774	70.33
664.118	28.33
664.462	33.33
664.806	28.33
665.15	49.33
665.494	27.33
665.838	29.33
666.182	38.33
666.526	39.33
666.869	26.33
667.213	32.33
667.557	31.33
667.9	42.33
668.244	37.33
668.587	41.33
668.931	26.33
669.274	26.33
669.618	30.33
669.961	32.33
670.304	28.33
670.648	30.33
670.991	25.33
671.334	15.33
671.677	24.33
672.02	21.33
672.363	22.33
672.706	22.33
673.049	35.33
673.392	25.33
673.735	26.33
674.077	20.33
674.42	29.33
674.763	23.33
675.105	29.33
675.448	38.33
675.79	14.33
676.133	29.33
676.475	20.33
676.818	17.33
677.16	14.33
677.502	30.33
677.844	46.33
678.187	19.33
678.529	53.33
678.871	32.33
679.213	29.33
679.555	27.33
679.897	28.33
680.239	21.33
680.58	21.33
680.922	32.33
681.264	37.33
681.606	26.33
681.947	21.33
682.289	26.33
682.631	60.33
682.972	21.33
683.313	26.33
683.655	27.33
683.996	18.33
684.338	25.33
684.679	15.33
685.02	21.33
685.361	28.33
685.702	25.33
686.043	31.33
686.384	20.33
686.725	21.33
687.066	33.33
687.407	21.33
687.748	24.33
688.089	39.33
688.43	23.33
688.77	58.33
689.111	30.33
689.451	21.33
689.792	26.33
690.132	28.33
690.473	20.33
690.813	23.33
691.154	24.33
691.494	24.33
691.834	26.33
692.174	21.33
692.515	24.33
692.855	23.33
693.195	31.33
693.535	32.33
693.875	14.33
694.215	25.33
694.554	36.33
694.894	22.33
695.234	23.33
695.574	26.33
695.913	29.33
696.253	23.33
696.593	26.33
696.932	30.33
697.272	23.33
697.611	20.33
697.95	33.33
698.29	19.33
698.629	24.33
698.968	15.33
699.307	17.33
699.647	21.33
699.986	34.33
700.325	26.33
700.664	18.33
701.003	22.33
701.341	21.33
701.68	13.33
702.019	14.33
702.358	20.33
702.697	27.33
703.035	33.33
703.374	13.33
703.712	26.33
704.051	15.33
704.389	28.33
704.728	17.33
705.066	20.33
705.404	27.33
705.743	22.33
706.081	22.33
706.419	8.33
706.757	17.33
707.095	36.33
707.433	27.33
707.771	26.33
708.109	13.33
708.447	24.33
708.785	30.33
709.123	28.33
709.46	17.33
709.798	15.33
710.136	32.33
710.473	29.33
710.811	25.33
711.148	32.33
711.486	17.33
711.823	20.33
712.16	14.33
712.498	16.33
712.835	26.33
713.172	21.33
713.509	31.33
713.846	72.33
714.183	32.33
714.52	19.33
714.857	21.33
715.194	23.33
715.531	18.33
715.868	34.33
716.205	14.33
716.541	24.33
716.878	33.33
717.215	20.33
717.551	22.33
717.888	26.33
718.224	74.33
718.561	19.33
718.897	19.33
719.233	18.33
719.57	16.33
719.906	17.33
720.242	18.33
720.578	22.33
720.914	20.33
721.25	22.33
721.586	11.33
721.922	6.33
722.258	31.33
722.594	16.33
722.929	24.33
723.265	21.33
723.601	27.33
723.937	41.33
724.272	13.33
724.608	18.33
724.943	14.33
725.279	10.33
725.614	11.33
725.949	22.33
726.285	14.33
726.62	44.33
726.955	10.33
727.29	20.33
727.625	11.33
727.96	26.33
728.295	32.33
728.63	19.33
728.965	11.33
729.3	15.33
729.635	68.33
729.97	20.33
730.304	16.33
730.639	20.33
730.974	12.33
731.308	28.33
731.643	7.33
731.977	23.33
732.311	24.33
732.646	13.33
732.98	19.33
733.314	10.33
733.649	23.33
733.983	23.33
734.317	46.33
734.651	16.33
734.985	17.33
735.319	20.33
735.653	18.33
735.987	31.33
736.321	33.33
736.654	10.33
736.988	20.33
737.322	32.33
737.655	26.33
737.989	21.33
738.322	18.33
738.656	12.33
738.989	20.33
739.323	16.33
739.656	20.33
739.989	26.33
740.323	12.33
740.656	10.33
740.989	12.33
741.322	14.33
741.655	17.33
741.988	33.33
742.321	31.33
742.654	17.33
742.987	19.33
743.319	20.33
743.652	18.33
743.985	25.33
744.317	13.33
744.65	13.33
744.983	19.33
745.315	11.33
745.648	16.33
745.98	18.33
746.312	11.33
746.645	19.33
746.977	27.33
747.309	25.33
747.641	18.33
747.973	28.33
748.305	10.33
748.637	12.33
748.969	12.33
749.301	30.33
749.633	12.33
749.965	3.33
750.297	17.33
750.628	21.33
750.96	25.33
751.292	30.33
751.623	17.33
751.955	18.33
752.286	28.33
752.618	10.33
752.949	7.33
753.28	25.33
753.611	14.33
753.943	13.33
754.274	22.33
754.605	18.33
754.936	17.33
755.267	9.33
755.598	20.33
755.929	11.33
756.26	19.33
756.591	140.33
756.921	16.33
757.252	17.33
757.583	12.33
757.913	14.33
758.244	12.33
758.574	20.33
758.905	12.33
759.235	24.33
759.566	7.33
759.896	38.33
760.226	21.33
760.557	9.33
760.887	9.33
761.217	20.33
761.547	33.33
761.877	16.33
762.207	31.33
762.537	16.33
762.867	13.33
763.197	44.33
763.526	16.33
763.856	32.33
764.186	23.33
764.515	4.33
764.845	9.33
765.175	18.33
765.504	17.33
765.833	9.33
766.163	15.33
766.492	12.33
766.821	13.33
767.151	18.33
767.48	13.33
767.809	18.33
768.138	14.33
768.467	12.33
768.796	7.33
769.125	13.33
769.454	16.33
769.783	22.33
770.112	17.33
770.44	25.33
770.769	12.33
771.098	27.33
771.426	13.33
771.755	14.33
772.083	9.33
772.412	16.33
772.74	13.33
773.069	82.33
773.397	28.33
773.725	6.33
774.053	46.33
774.381	25.33
774.71	30.33
775.038	10.33
775.366	10.33
775.693	13.33
776.021	17.33
776.349	13.33
776.677	13.33
777.005	10.33
777.332	17.33
777.66	7.33
777.988	15.33
778.315	28.33
778.643	15.33
778.97	14.33
779.298	14.33
779.625	13.33
779.952	19.33
780.28	25.33
780.607	17.33
780.934	23.33
781.261	17.33
781.588	10.33
781.915	24.33
782.242	22.33
782.569	40.33
782.896	21.33
783.223	20.33
783.549	31.33
783.876	22.33
784.203	10.33
784.529	37.33
784.856	22.33
785.182	26.33
785.509	29.33
785.835	20.33
786.162	18.33
786.488	16.33
786.814	6.33
787.14	24.33
787.466	15.33
787.793	29.33
788.119	9.33
788.445	10.33
788.771	27.33
789.097	12.33
789.422	14.33
789.748	13.33
790.074	13.33
790.4	27.33
790.725	20.33
791.051	73.33
791.376	14.33
791.702	17.33
792.027	19.33
792.353	14.33
792.678	22.33
793.004	31.33
793.329	25.33
793.654	12.33
793.979	14.33
794.304	9.33
794.629	23.33
794.954	16.33
795.279	13.33
795.604	23.33
795.929	14.33
796.254	14.33
796.579	10.33
796.903	77.33
797.228	9.33
797.553	37.33
797.877	8.33
798.202	26.33
798.526	16.33
798.851	15.33
799.175	24.33
799.499	16.33
799.823	13.33
800.148	10.33
800.472	11.33
800.796	15.33
801.12	21.33
801.444	20.33
801.768	17.33
802.092	22.33
802.416	15.33
802.74	26.33
803.063	15.33
803.387	18.33
803.711	91.33
804.034	22.33
804.358	13.33
804.681	24.33
