Data from USB2G147421__52__12-59-16-241.txt Node

Date: Tue Jun 28 12:59:16 UTC 2022
User: yes
Spectrometer: USB2G14742
Trigger mode: 4
Integration Time (sec): 2.000000E0
Scans to average: 1
Electric dark correction enabled: true
Nonlinearity correction enabled: false
Boxcar width: 0
XAxis mode: Wavelengths
Number of Pixels in Spectrum: 2048
>>>>>Begin Spectral Data<<<<<
339.471	-153.83
339.856	-1.83
340.241	-0.83
340.625	-1.83
341.01	-3.83
341.395	32.17
341.779	10.17
342.163	12.17
342.548	11.17
342.932	13.17
343.317	11.17
343.701	8.17
344.085	12.17
344.469	5.17
344.853	4.17
345.238	8.17
345.622	11.17
346.006	23.17
346.39	3.17
346.774	9.17
347.157	13.17
347.541	6.17
347.925	8.17
348.309	9.17
348.693	25.17
349.076	5.17
349.46	19.17
349.843	13.17
350.227	7.17
350.61	69.17
350.994	17.17
351.377	15.17
351.761	31.17
352.144	26.17
352.527	2.17
352.91	7.17
353.294	10.17
353.677	16.17
354.06	17.17
354.443	93.17
354.826	9.17
355.209	3.17
355.592	4.17
355.975	4.17
356.358	19.17
356.74	18.17
357.123	13.17
357.506	8.17
357.889	10.17
358.271	19.17
358.654	8.17
359.036	14.17
359.419	8.17
359.801	14.17
360.184	11.17
360.566	15.17
360.948	26.17
361.331	18.17
361.713	6.17
362.095	24.17
362.477	7.17
362.859	6.17
363.241	15.17
363.623	9.17
364.005	18.17
364.387	23.17
364.769	13.17
365.151	16.17
365.533	38.17
365.915	26.17
366.296	8.17
366.678	60.17
367.06	9.17
367.441	19.17
367.823	27.17
368.204	11.17
368.586	15.17
368.967	13.17
369.348	20.17
369.73	18.17
370.111	11.17
370.492	9.17
370.873	14.17
371.255	39.17
371.636	13.17
372.017	16.17
372.398	22.17
372.779	19.17
373.16	7.17
373.54	9.17
373.921	9.17
374.302	7.17
374.683	15.17
375.064	14.17
375.444	7.17
375.825	14.17
376.205	11.17
376.586	20.17
376.966	13.17
377.347	16.17
377.727	8.17
378.108	11.17
378.488	9.17
378.868	7.17
379.248	13.17
379.629	11.17
380.009	39.17
380.389	13.17
380.769	15.17
381.149	10.17
381.529	25.17
381.909	29.17
382.289	14.17
382.668	93.17
383.048	8.17
383.428	13.17
383.808	7.17
384.187	11.17
384.567	20.17
384.946	4.17
385.326	19.17
385.705	19.17
386.085	10.17
386.464	23.17
386.844	16.17
387.223	11.17
387.602	14.17
387.981	16.17
388.361	10.17
388.74	19.17
389.119	9.17
389.498	15.17
389.877	14.17
390.256	8.17
390.635	19.17
391.013	16.17
391.392	9.17
391.771	50.17
392.15	20.17
392.528	12.17
392.907	8.17
393.286	21.17
393.664	27.17
394.043	7.17
394.421	17.17
394.8	10.17
395.178	8.17
395.556	15.17
395.935	19.17
396.313	12.17
396.691	16.17
397.069	10.17
397.447	1.17
397.825	17.17
398.203	9.17
398.581	22.17
398.959	15.17
399.337	18.17
399.715	74.17
400.093	10.17
400.471	11.17
400.848	7.17
401.226	13.17
401.604	12.17
401.981	12.17
402.359	14.17
402.736	9.17
403.114	42.17
403.491	18.17
403.868	21.17
404.246	56.17
404.623	25.17
405	9.17
405.377	11.17
405.755	16.17
406.132	5.17
406.509	11.17
406.886	20.17
407.263	20.17
407.64	5.17
408.017	15.17
408.393	17.17
408.77	20.17
409.147	6.17
409.524	12.17
409.9	21.17
410.277	18.17
410.653	16.17
411.03	18.17
411.406	13.17
411.783	33.17
412.159	17.17
412.536	16.17
412.912	8.17
413.288	23.17
413.664	6.17
414.04	4.17
414.417	18.17
414.793	11.17
415.169	16.17
415.545	24.17
415.921	14.17
416.297	28.17
416.672	7.17
417.048	7.17
417.424	12.17
417.8	42.17
418.175	10.17
418.551	3.17
418.927	11.17
419.302	73.17
419.678	27.17
420.053	14.17
420.429	24.17
420.804	11.17
421.179	6.17
421.554	13.17
421.93	15.17
422.305	74.17
422.68	12.17
423.055	18.17
423.43	9.17
423.805	9.17
424.18	5.17
424.555	12.17
424.93	16.17
425.305	5.17
425.68	13.17
426.054	14.17
426.429	13.17
426.804	16.17
427.178	21.17
427.553	13.17
427.927	61.17
428.302	11.17
428.676	16.17
429.051	14.17
429.425	6.17
429.799	23.17
430.174	14.17
430.548	8.17
430.922	25.17
431.296	9.17
431.67	18.17
432.044	26.17
432.418	8.17
432.792	6.17
433.166	7.17
433.54	21.17
433.914	22.17
434.287	19.17
434.661	12.17
435.035	15.17
435.408	11.17
435.782	16.17
436.156	20.17
436.529	55.17
436.903	12.17
437.276	12.17
437.649	29.17
438.023	62.17
438.396	12.17
438.769	15.17
439.142	11.17
439.515	28.17
439.889	17.17
440.262	19.17
440.635	33.17
441.008	26.17
441.38	22.17
441.753	19.17
442.126	15.17
442.499	15.17
442.872	79.17
443.244	61.17
443.617	10.17
443.99	24.17
444.362	22.17
444.735	12.17
445.107	20.17
445.48	52.17
445.852	13.17
446.224	19.17
446.597	18.17
446.969	26.17
447.341	33.17
447.713	33.17
448.085	19.17
448.457	24.17
448.829	15.17
449.201	31.17
449.573	22.17
449.945	28.17
450.317	23.17
450.689	24.17
451.061	24.17
451.432	11.17
451.804	25.17
452.176	46.17
452.547	30.17
452.919	30.17
453.29	24.17
453.662	27.17
454.033	20.17
454.404	35.17
454.776	18.17
455.147	20.17
455.518	24.17
455.889	26.17
456.26	26.17
456.631	31.17
457.002	25.17
457.373	23.17
457.744	38.17
458.115	28.17
458.486	30.17
458.857	18.17
459.228	26.17
459.598	17.17
459.969	17.17
460.34	32.17
460.71	11.17
461.081	17.17
461.451	33.17
461.822	21.17
462.192	14.17
462.563	15.17
462.933	24.17
463.303	21.17
463.673	32.17
464.044	29.17
464.414	28.17
464.784	22.17
465.154	17.17
465.524	22.17
465.894	26.17
466.264	17.17
466.634	17.17
467.003	22.17
467.373	21.17
467.743	33.17
468.113	25.17
468.482	25.17
468.852	24.17
469.221	23.17
469.591	19.17
469.96	33.17
470.33	16.17
470.699	65.17
471.068	12.17
471.438	20.17
471.807	23.17
472.176	29.17
472.545	41.17
472.914	14.17
473.283	22.17
473.652	20.17
474.021	40.17
474.39	24.17
474.759	22.17
475.128	18.17
475.497	10.17
475.865	11.17
476.234	17.17
476.603	10.17
476.971	19.17
477.34	10.17
477.708	30.17
478.077	15.17
478.445	19.17
478.814	17.17
479.182	22.17
479.55	19.17
479.919	17.17
480.287	19.17
480.655	34.17
481.023	11.17
481.391	21.17
481.759	23.17
482.127	19.17
482.495	14.17
482.863	22.17
483.231	16.17
483.598	25.17
483.966	28.17
484.334	23.17
484.701	25.17
485.069	23.17
485.437	44.17
485.804	16.17
486.172	24.17
486.539	21.17
486.906	13.17
487.274	33.17
487.641	21.17
488.008	33.17
488.375	34.17
488.743	24.17
489.11	23.17
489.477	14.17
489.844	18.17
490.211	20.17
490.578	17.17
490.945	30.17
491.311	26.17
491.678	26.17
492.045	35.17
492.412	12.17
492.778	19.17
493.145	28.17
493.511	18.17
493.878	30.17
494.244	26.17
494.611	23.17
494.977	25.17
495.344	16.17
495.71	60.17
496.076	16.17
496.442	32.17
496.808	19.17
497.175	27.17
497.541	19.17
497.907	26.17
498.273	42.17
498.638	45.17
499.004	19.17
499.37	23.17
499.736	55.17
500.102	21.17
500.467	38.17
500.833	24.17
501.199	37.17
501.564	29.17
501.93	23.17
502.295	40.17
502.661	25.17
503.026	31.17
503.391	29.17
503.757	37.17
504.122	23.17
504.487	30.17
504.852	43.17
505.217	38.17
505.582	27.17
505.947	36.17
506.312	37.17
506.677	30.17
507.042	32.17
507.407	40.17
507.772	55.17
508.136	51.17
508.501	47.17
508.866	33.17
509.23	55.17
509.595	42.17
509.959	35.17
510.324	32.17
510.688	53.17
511.053	49.17
511.417	96.17
511.781	40.17
512.146	34.17
512.51	57.17
512.874	81.17
513.238	32.17
513.602	37.17
513.966	46.17
514.33	41.17
514.694	37.17
515.058	33.17
515.422	51.17
515.785	60.17
516.149	41.17
516.513	52.17
516.876	42.17
517.24	44.17
517.604	38.17
517.967	52.17
518.331	38.17
518.694	40.17
519.057	51.17
519.421	46.17
519.784	53.17
520.147	61.17
520.51	67.17
520.873	45.17
521.237	49.17
521.6	53.17
521.963	48.17
522.326	46.17
522.688	46.17
523.051	53.17
523.414	56.17
523.777	126.17
524.14	47.17
524.502	51.17
524.865	59.17
525.228	49.17
525.59	60.17
525.953	65.17
526.315	53.17
526.677	51.17
527.04	98.17
527.402	52.17
527.764	57.17
528.127	48.17
528.489	63.17
528.851	55.17
529.213	55.17
529.575	56.17
529.937	71.17
530.299	52.17
530.661	58.17
531.023	59.17
531.384	58.17
531.746	51.17
532.108	55.17
532.47	57.17
532.831	60.17
533.193	52.17
533.554	71.17
533.916	57.17
534.277	70.17
534.639	48.17
535	56.17
535.361	67.17
535.723	66.17
536.084	62.17
536.445	86.17
536.806	130.17
537.167	85.17
537.528	63.17
537.889	83.17
538.25	63.17
538.611	78.17
538.972	71.17
539.333	71.17
539.693	81.17
540.054	252.17
540.415	62.17
540.775	58.17
541.136	66.17
541.496	61.17
541.857	80.17
542.217	62.17
542.578	72.17
542.938	92.17
543.298	73.17
543.658	74.17
544.019	73.17
544.379	68.17
544.739	72.17
545.099	70.17
545.459	77.17
545.819	77.17
546.179	67.17
546.539	97.17
546.899	80.17
547.258	84.17
547.618	82.17
547.978	83.17
548.337	82.17
548.697	80.17
549.056	96.17
549.416	78.17
549.775	85.17
550.135	88.17
550.494	71.17
550.854	95.17
551.213	92.17
551.572	87.17
551.931	85.17
552.29	87.17
552.649	92.17
553.008	84.17
553.367	111.17
553.726	105.17
554.085	80.17
554.444	188.17
554.803	79.17
555.162	94.17
555.52	87.17
555.879	93.17
556.238	90.17
556.596	81.17
556.955	89.17
557.313	100.17
557.672	91.17
558.03	81.17
558.388	88.17
558.747	108.17
559.105	86.17
559.463	84.17
559.821	83.17
560.179	97.17
560.537	90.17
560.896	92.17
561.253	83.17
561.611	87.17
561.969	89.17
562.327	98.17
562.685	101.17
563.043	88.17
563.4	79.17
563.758	102.17
564.116	101.17
564.473	95.17
564.831	85.17
565.188	93.17
565.546	125.17
565.903	100.17
566.26	100.17
566.617	103.17
566.975	114.17
567.332	92.17
567.689	92.17
568.046	98.17
568.403	109.17
568.76	93.17
569.117	115.17
569.474	100.17
569.831	86.17
570.188	103.17
570.544	104.17
570.901	105.17
571.258	123.17
571.614	96.17
571.971	105.17
572.328	95.17
572.684	100.17
573.04	119.17
573.397	95.17
573.753	124.17
574.109	103.17
574.466	116.17
574.822	104.17
575.178	112.17
575.534	106.17
575.89	120.17
576.246	102.17
576.602	113.17
576.958	110.17
577.314	114.17
577.67	102.17
578.026	107.17
578.381	110.17
578.737	107.17
579.093	112.17
579.448	118.17
579.804	138.17
580.159	119.17
580.515	98.17
580.87	111.17
581.226	110.17
581.581	120.17
581.936	121.17
582.291	104.17
582.647	110.17
583.002	128.17
583.357	103.17
583.712	113.17
584.067	106.17
584.422	114.17
584.777	112.17
585.131	106.17
585.486	105.17
585.841	103.17
586.196	132.17
586.55	112.17
586.905	114.17
587.26	104.17
587.614	100.17
587.969	138.17
588.323	120.17
588.677	124.17
589.032	117.17
589.386	125.17
589.74	143.17
590.094	128.17
590.449	131.17
590.803	140.17
591.157	109.17
591.511	132.17
591.865	125.17
592.219	131.17
592.573	110.17
592.926	110.17
593.28	103.17
593.634	137.17
593.988	107.17
594.341	102.17
594.695	119.17
595.048	97.17
595.402	101.17
595.755	102.17
596.109	122.17
596.462	116.17
596.815	104.17
597.169	124.17
597.522	97.17
597.875	148.17
598.228	110.17
598.581	105.17
598.934	129.17
599.287	100.17
599.64	114.17
599.993	101.17
600.346	103.17
600.698	106.17
601.051	111.17
601.404	107.17
601.757	105.17
602.109	116.17
602.462	113.17
602.814	94.17
603.167	96.17
603.519	105.17
603.871	114.17
604.224	106.17
604.576	96.17
604.928	122.17
605.28	94.17
605.633	102.17
605.985	107.17
606.337	105.17
606.689	86.17
607.041	120.17
607.392	88.17
607.744	102.17
608.096	88.17
608.448	92.17
608.8	90.17
609.151	94.17
609.503	88.17
609.854	100.17
610.206	126.17
610.557	94.17
610.909	84.17
611.26	99.17
611.612	90.17
611.963	89.17
612.314	102.17
612.665	87.17
613.016	89.17
613.367	90.17
613.719	107.17
614.07	82.17
614.42	92.17
614.771	83.17
615.122	95.17
615.473	91.17
615.824	82.17
616.174	99.17
616.525	83.17
616.876	69.17
617.226	91.17
617.577	79.17
617.927	78.17
618.278	81.17
618.628	142.17
618.979	93.17
619.329	78.17
619.679	97.17
620.029	90.17
620.379	74.17
620.729	96.17
621.08	87.17
621.43	104.17
621.779	100.17
622.129	79.17
622.479	80.17
622.829	75.17
623.179	76.17
623.529	71.17
623.878	79.17
624.228	68.17
624.577	59.17
624.927	63.17
625.276	65.17
625.626	91.17
625.975	83.17
626.325	73.17
626.674	115.17
627.023	65.17
627.372	70.17
627.722	95.17
628.071	93.17
628.42	78.17
628.769	109.17
629.118	60.17
629.467	69.17
629.815	77.17
630.164	57.17
630.513	77.17
630.862	105.17
631.21	68.17
631.559	63.17
631.908	52.17
632.256	63.17
632.605	60.17
632.953	64.17
633.302	57.17
633.65	83.17
633.998	124.17
634.346	78.17
634.695	55.17
635.043	57.17
635.391	75.17
635.739	57.17
636.087	57.17
636.435	81.17
636.783	64.17
637.131	55.17
637.479	73.17
637.826	48.17
638.174	55.17
638.522	55.17
638.869	95.17
639.217	58.17
639.564	64.17
639.912	47.17
640.259	53.17
640.607	57.17
640.954	64.17
641.301	64.17
641.649	48.17
641.996	49.17
642.343	57.17
642.69	52.17
643.037	63.17
643.384	84.17
643.731	51.17
644.078	80.17
644.425	45.17
644.772	51.17
645.119	48.17
645.465	43.17
645.812	53.17
646.159	58.17
646.505	54.17
646.852	67.17
647.198	46.17
647.545	53.17
647.891	70.17
648.237	49.17
648.584	53.17
648.93	47.17
649.276	57.17
649.622	59.17
649.969	66.17
650.315	58.17
650.661	56.17
651.007	47.17
651.352	56.17
651.698	38.17
652.044	37.17
652.39	52.17
652.736	39.17
653.081	39.17
653.427	46.17
653.773	49.17
654.118	45.17
654.464	43.17
654.809	48.17
655.154	37.17
655.5	46.17
655.845	37.17
656.19	40.17
656.536	39.17
656.881	44.17
657.226	39.17
657.571	88.17
657.916	39.17
658.261	32.17
658.606	43.17
658.951	30.17
659.295	34.17
659.64	26.17
659.985	34.17
660.33	34.17
660.674	35.17
661.019	37.17
661.363	32.17
661.708	41.17
662.052	20.17
662.397	29.17
662.741	30.17
663.085	31.17
663.429	36.17
663.774	75.17
664.118	23.17
664.462	35.17
664.806	27.17
665.15	44.17
665.494	23.17
665.838	31.17
666.182	35.17
666.526	38.17
666.869	24.17
667.213	20.17
667.557	36.17
667.9	43.17
668.244	31.17
668.587	39.17
668.931	21.17
669.274	27.17
669.618	25.17
669.961	33.17
670.304	24.17
670.648	28.17
670.991	19.17
671.334	16.17
671.677	18.17
672.02	21.17
672.363	20.17
672.706	25.17
673.049	35.17
673.392	19.17
673.735	26.17
674.077	19.17
674.42	23.17
674.763	23.17
675.105	24.17
675.448	38.17
675.79	23.17
676.133	24.17
676.475	15.17
676.818	16.17
677.16	19.17
677.502	33.17
677.844	49.17
678.187	11.17
678.529	47.17
678.871	27.17
679.213	22.17
679.555	30.17
679.897	30.17
680.239	24.17
680.58	26.17
680.922	28.17
681.264	39.17
681.606	22.17
681.947	28.17
682.289	26.17
682.631	58.17
682.972	17.17
683.313	26.17
683.655	25.17
683.996	23.17
684.338	17.17
684.679	17.17
685.02	18.17
685.361	24.17
685.702	27.17
686.043	28.17
686.384	18.17
686.725	20.17
687.066	33.17
687.407	23.17
687.748	16.17
688.089	40.17
688.43	19.17
688.77	61.17
689.111	30.17
689.451	25.17
689.792	27.17
690.132	21.17
690.473	23.17
690.813	18.17
691.154	24.17
691.494	22.17
691.834	21.17
692.174	19.17
692.515	17.17
692.855	16.17
693.195	32.17
693.535	29.17
693.875	23.17
694.215	23.17
694.554	28.17
694.894	22.17
695.234	24.17
695.574	26.17
695.913	22.17
696.253	21.17
696.593	31.17
696.932	25.17
697.272	22.17
697.611	13.17
697.95	28.17
698.29	18.17
698.629	24.17
698.968	18.17
699.307	15.17
699.647	18.17
699.986	34.17
700.325	26.17
700.664	15.17
701.003	23.17
701.341	16.17
701.68	16.17
702.019	10.17
702.358	13.17
702.697	26.17
703.035	29.17
703.374	21.17
703.712	27.17
704.051	14.17
704.389	20.17
704.728	15.17
705.066	15.17
705.404	26.17
705.743	27.17
706.081	15.17
706.419	8.17
706.757	16.17
707.095	35.17
707.433	22.17
707.771	26.17
708.109	12.17
708.447	24.17
708.785	22.17
709.123	32.17
709.46	19.17
709.798	16.17
710.136	29.17
710.473	22.17
710.811	28.17
711.148	32.17
711.486	23.17
711.823	13.17
712.16	20.17
712.498	15.17
712.835	32.17
713.172	19.17
713.509	27.17
713.846	78.17
714.183	32.17
714.52	16.17
714.857	13.17
715.194	16.17
715.531	16.17
715.868	27.17
716.205	16.17
716.541	28.17
716.878	36.17
717.215	20.17
717.551	29.17
717.888	25.17
718.224	72.17
718.561	21.17
718.897	15.17
719.233	16.17
719.57	20.17
719.906	11.17
720.242	7.17
720.578	10.17
720.914	16.17
721.25	19.17
721.586	11.17
721.922	15.17
722.258	32.17
722.594	12.17
722.929	25.17
723.265	16.17
723.601	22.17
723.937	27.17
724.272	9.17
724.608	17.17
724.943	10.17
725.279	8.17
725.614	7.17
725.949	20.17
726.285	15.17
726.62	40.17
726.955	11.17
727.29	13.17
727.625	10.17
727.96	21.17
728.295	28.17
728.63	18.17
728.965	12.17
729.3	14.17
729.635	62.17
729.97	16.17
730.304	17.17
730.639	17.17
730.974	15.17
731.308	24.17
731.643	7.17
731.977	25.17
732.311	24.17
732.646	11.17
732.98	13.17
733.314	9.17
733.649	20.17
733.983	30.17
734.317	44.17
734.651	10.17
734.985	14.17
735.319	15.17
735.653	14.17
735.987	27.17
736.321	29.17
736.654	6.17
736.988	20.17
737.322	35.17
737.655	25.17
737.989	24.17
738.322	20.17
738.656	13.17
738.989	21.17
739.323	16.17
739.656	19.17
739.989	35.17
740.323	8.17
740.656	15.17
740.989	9.17
741.322	17.17
741.655	23.17
741.988	39.17
742.321	30.17
742.654	17.17
742.987	9.17
743.319	17.17
743.652	26.17
743.985	22.17
744.317	9.17
744.65	7.17
744.983	23.17
745.315	13.17
745.648	16.17
745.98	13.17
746.312	14.17
746.645	12.17
746.977	22.17
747.309	17.17
747.641	11.17
747.973	26.17
748.305	4.17
748.637	10.17
748.969	10.17
749.301	22.17
749.633	14.17
749.965	4.17
750.297	18.17
750.628	23.17
750.96	15.17
751.292	31.17
751.623	11.17
751.955	20.17
752.286	23.17
752.618	13.17
752.949	8.17
753.28	24.17
753.611	5.17
753.943	15.17
754.274	21.17
754.605	19.17
754.936	16.17
755.267	12.17
755.598	26.17
755.929	11.17
756.26	6.17
756.591	136.17
756.921	12.17
757.252	18.17
757.583	14.17
757.913	13.17
758.244	11.17
758.574	20.17
758.905	10.17
759.235	28.17
759.566	5.17
759.896	30.17
760.226	18.17
760.557	3.17
760.887	7.17
761.217	13.17
761.547	24.17
761.877	23.17
762.207	25.17
762.537	13.17
762.867	17.17
763.197	43.17
763.526	16.17
763.856	25.17
764.186	19.17
764.515	4.17
764.845	-0.83
765.175	20.17
765.504	12.17
765.833	8.17
766.163	10.17
766.492	15.17
766.821	16.17
767.151	13.17
767.48	10.17
767.809	24.17
768.138	13.17
768.467	8.17
768.796	7.17
769.125	11.17
769.454	9.17
769.783	18.17
770.112	14.17
770.44	17.17
770.769	10.17
771.098	26.17
771.426	21.17
771.755	8.17
772.083	15.17
772.412	15.17
772.74	13.17
773.069	78.17
773.397	26.17
773.725	7.17
774.053	42.17
774.381	23.17
774.71	23.17
775.038	3.17
775.366	12.17
775.693	10.17
776.021	22.17
776.349	8.17
776.677	15.17
777.005	12.17
777.332	17.17
777.66	2.17
777.988	11.17
778.315	30.17
778.643	16.17
778.97	13.17
779.298	12.17
779.625	11.17
779.952	14.17
780.28	23.17
780.607	13.17
780.934	26.17
781.261	24.17
781.588	11.17
781.915	23.17
782.242	21.17
782.569	37.17
782.896	15.17
783.223	13.17
783.549	22.17
783.876	20.17
784.203	8.17
784.529	36.17
784.856	24.17
785.182	17.17
785.509	22.17
785.835	16.17
786.162	15.17
786.488	11.17
786.814	-0.83
787.14	18.17
787.466	16.17
787.793	22.17
788.119	10.17
788.445	11.17
788.771	28.17
789.097	15.17
789.422	16.17
789.748	10.17
790.074	9.17
790.4	30.17
790.725	17.17
791.051	74.17
791.376	13.17
791.702	16.17
792.027	12.17
792.353	11.17
792.678	20.17
793.004	33.17
793.329	22.17
793.654	11.17
793.979	18.17
794.304	10.17
794.629	17.17
794.954	10.17
795.279	14.17
795.604	20.17
795.929	13.17
796.254	9.17
796.579	5.17
796.903	74.17
797.228	5.17
797.553	35.17
797.877	4.17
798.202	23.17
798.526	16.17
798.851	11.17
799.175	12.17
799.499	14.17
799.823	13.17
800.148	7.17
800.472	7.17
800.796	8.17
801.12	16.17
801.444	15.17
801.768	13.17
802.092	16.17
802.416	15.17
802.74	25.17
803.063	16.17
803.387	18.17
803.711	89.17
804.034	19.17
804.358	15.17
804.681	23.17
805.005	15.17
805.328	14.17
805.652	6.17
805.975	10.17
