Data from USB2G147421__63__13-05-57-595.txt Node

Date: Tue Jun 28 13:05:57 UTC 2022
User: yes
Spectrometer: USB2G14742
Trigger mode: 4
Integration Time (sec): 2.000000E0
Scans to average: 1
Electric dark correction enabled: true
Nonlinearity correction enabled: false
Boxcar width: 0
XAxis mode: Wavelengths
Number of Pixels in Spectrum: 2048
>>>>>Begin Spectral Data<<<<<
339.471	-155.28
339.856	-4.28
340.241	-3.28
340.625	-4.28
341.01	-3.28
341.395	34.72
341.779	8.72
342.163	5.72
342.548	13.72
342.932	18.72
343.317	8.72
343.701	11.72
344.085	10.72
344.469	3.72
344.853	7.72
345.238	5.72
345.622	13.72
346.006	26.72
346.39	6.72
346.774	13.72
347.157	13.72
347.541	9.72
347.925	6.72
348.309	4.72
348.693	27.72
349.076	9.72
349.46	20.72
349.843	10.72
350.227	6.72
350.61	65.72
350.994	12.72
351.377	12.72
351.761	34.72
352.144	21.72
352.527	4.72
352.91	5.72
353.294	7.72
353.677	14.72
354.06	15.72
354.443	89.72
354.826	4.72
355.209	3.72
355.592	6.72
355.975	3.72
356.358	17.72
356.74	16.72
357.123	9.72
357.506	5.72
357.889	6.72
358.271	13.72
358.654	6.72
359.036	14.72
359.419	5.72
359.801	9.72
360.184	5.72
360.566	10.72
360.948	20.72
361.331	13.72
361.713	0.72
362.095	20.72
362.477	7.72
362.859	12.72
363.241	11.72
363.623	6.72
364.005	10.72
364.387	15.72
364.769	6.72
365.151	15.72
365.533	31.72
365.915	21.72
366.296	7.72
366.678	56.72
367.06	9.72
367.441	15.72
367.823	25.72
368.204	15.72
368.586	12.72
368.967	18.72
369.348	17.72
369.73	19.72
370.111	9.72
370.492	2.72
370.873	12.72
371.255	40.72
371.636	14.72
372.017	14.72
372.398	16.72
372.779	12.72
373.16	15.72
373.54	2.72
373.921	8.72
374.302	2.72
374.683	14.72
375.064	7.72
375.444	4.72
375.825	14.72
376.205	6.72
376.586	21.72
376.966	15.72
377.347	13.72
377.727	9.72
378.108	11.72
378.488	9.72
378.868	5.72
379.248	10.72
379.629	6.72
380.009	38.72
380.389	5.72
380.769	15.72
381.149	8.72
381.529	22.72
381.909	24.72
382.289	10.72
382.668	92.72
383.048	11.72
383.428	5.72
383.808	7.72
384.187	10.72
384.567	14.72
384.946	3.72
385.326	16.72
385.705	20.72
386.085	7.72
386.464	20.72
386.844	10.72
387.223	10.72
387.602	7.72
387.981	9.72
388.361	8.72
388.74	13.72
389.119	1.72
389.498	11.72
389.877	13.72
390.256	6.72
390.635	21.72
391.013	13.72
391.392	8.72
391.771	50.72
392.15	16.72
392.528	14.72
392.907	7.72
393.286	14.72
393.664	22.72
394.043	7.72
394.421	15.72
394.8	9.72
395.178	5.72
395.556	17.72
395.935	14.72
396.313	8.72
396.691	12.72
397.069	7.72
397.447	8.72
397.825	18.72
398.203	7.72
398.581	18.72
398.959	12.72
399.337	14.72
399.715	70.72
400.093	7.72
400.471	10.72
400.848	1.72
401.226	18.72
401.604	8.72
401.981	12.72
402.359	14.72
402.736	10.72
403.114	42.72
403.491	20.72
403.868	23.72
404.246	52.72
404.623	22.72
405	9.72
405.377	6.72
405.755	17.72
406.132	4.72
406.509	6.72
406.886	14.72
407.263	20.72
407.64	6.72
408.017	15.72
408.393	15.72
408.77	18.72
409.147	12.72
409.524	8.72
409.9	12.72
410.277	15.72
410.653	16.72
411.03	13.72
411.406	4.72
411.783	36.72
412.159	19.72
412.536	19.72
412.912	7.72
413.288	24.72
413.664	8.72
414.04	4.72
414.417	17.72
414.793	9.72
415.169	12.72
415.545	22.72
415.921	13.72
416.297	24.72
416.672	1.72
417.048	8.72
417.424	16.72
417.8	45.72
418.175	10.72
418.551	0.72
418.927	3.72
419.302	65.72
419.678	26.72
420.053	5.72
420.429	18.72
420.804	11.72
421.179	7.72
421.554	12.72
421.93	10.72
422.305	61.72
422.68	15.72
423.055	9.72
423.43	10.72
423.805	11.72
424.18	6.72
424.555	11.72
424.93	12.72
425.305	1.72
425.68	12.72
426.054	14.72
426.429	13.72
426.804	14.72
427.178	18.72
427.553	7.72
427.927	64.72
428.302	12.72
428.676	10.72
429.051	13.72
429.425	4.72
429.799	24.72
430.174	11.72
430.548	7.72
430.922	20.72
431.296	11.72
431.67	19.72
432.044	21.72
432.418	4.72
432.792	6.72
433.166	2.72
433.54	15.72
433.914	25.72
434.287	13.72
434.661	11.72
435.035	10.72
435.408	12.72
435.782	22.72
436.156	15.72
436.529	51.72
436.903	8.72
437.276	5.72
437.649	30.72
438.023	54.72
438.396	14.72
438.769	14.72
439.142	17.72
439.515	28.72
439.889	16.72
440.262	21.72
440.635	27.72
441.008	22.72
441.38	18.72
441.753	17.72
442.126	11.72
442.499	11.72
442.872	74.72
443.244	51.72
443.617	8.72
443.99	22.72
444.362	23.72
444.735	10.72
445.107	17.72
445.48	42.72
445.852	13.72
446.224	14.72
446.597	18.72
446.969	20.72
447.341	28.72
447.713	27.72
448.085	17.72
448.457	27.72
448.829	15.72
449.201	27.72
449.573	25.72
449.945	26.72
450.317	17.72
450.689	17.72
451.061	19.72
451.432	18.72
451.804	25.72
452.176	39.72
452.547	21.72
452.919	20.72
453.29	28.72
453.662	22.72
454.033	14.72
454.404	31.72
454.776	19.72
455.147	16.72
455.518	21.72
455.889	22.72
456.26	19.72
456.631	23.72
457.002	16.72
457.373	18.72
457.744	32.72
458.115	19.72
458.486	24.72
458.857	19.72
459.228	24.72
459.598	19.72
459.969	15.72
460.34	25.72
460.71	16.72
461.081	20.72
461.451	27.72
461.822	22.72
462.192	11.72
462.563	17.72
462.933	14.72
463.303	21.72
463.673	30.72
464.044	21.72
464.414	19.72
464.784	18.72
465.154	16.72
465.524	15.72
465.894	24.72
466.264	17.72
466.634	24.72
467.003	18.72
467.373	15.72
467.743	27.72
468.113	27.72
468.482	19.72
468.852	24.72
469.221	25.72
469.591	21.72
469.96	28.72
470.33	14.72
470.699	80.72
471.068	12.72
471.438	24.72
471.807	28.72
472.176	30.72
472.545	40.72
472.914	10.72
473.283	27.72
473.652	15.72
474.021	36.72
474.39	21.72
474.759	23.72
475.128	15.72
475.497	10.72
475.865	7.72
476.234	21.72
476.603	6.72
476.971	8.72
477.34	15.72
477.708	29.72
478.077	16.72
478.445	21.72
478.814	11.72
479.182	19.72
479.55	20.72
479.919	10.72
480.287	20.72
480.655	27.72
481.023	8.72
481.391	19.72
481.759	23.72
482.127	21.72
482.495	12.72
482.863	16.72
483.231	11.72
483.598	19.72
483.966	24.72
484.334	20.72
484.701	25.72
485.069	26.72
485.437	49.72
485.804	15.72
486.172	16.72
486.539	26.72
486.906	16.72
487.274	24.72
487.641	17.72
488.008	22.72
488.375	38.72
488.743	25.72
489.11	21.72
489.477	9.72
489.844	12.72
490.211	15.72
490.578	14.72
490.945	24.72
491.311	28.72
491.678	21.72
492.045	36.72
492.412	11.72
492.778	22.72
493.145	32.72
493.511	16.72
493.878	24.72
494.244	18.72
494.611	18.72
494.977	20.72
495.344	10.72
495.71	64.72
496.076	14.72
496.442	31.72
496.808	15.72
497.175	25.72
497.541	11.72
497.907	23.72
498.273	42.72
498.638	40.72
499.004	21.72
499.37	26.72
499.736	51.72
500.102	21.72
500.467	38.72
500.833	21.72
501.199	35.72
501.564	30.72
501.93	23.72
502.295	40.72
502.661	27.72
503.026	31.72
503.391	30.72
503.757	34.72
504.122	22.72
504.487	27.72
504.852	45.72
505.217	31.72
505.582	24.72
505.947	32.72
506.312	34.72
506.677	31.72
507.042	27.72
507.407	37.72
507.772	60.72
508.136	56.72
508.501	45.72
508.866	38.72
509.23	49.72
509.595	36.72
509.959	36.72
510.324	28.72
510.688	50.72
511.053	43.72
511.417	92.72
511.781	37.72
512.146	26.72
512.51	53.72
512.874	83.72
513.238	38.72
513.602	27.72
513.966	37.72
514.33	38.72
514.694	34.72
515.058	33.72
515.422	46.72
515.785	55.72
516.149	39.72
516.513	53.72
516.876	39.72
517.24	42.72
517.604	34.72
517.967	49.72
518.331	33.72
518.694	36.72
519.057	55.72
519.421	45.72
519.784	44.72
520.147	53.72
520.51	66.72
520.873	35.72
521.237	46.72
521.6	49.72
521.963	45.72
522.326	50.72
522.688	40.72
523.051	50.72
523.414	54.72
523.777	118.72
524.14	46.72
524.502	48.72
524.865	46.72
525.228	49.72
525.59	54.72
525.953	60.72
526.315	42.72
526.677	50.72
527.04	92.72
527.402	49.72
527.764	45.72
528.127	46.72
528.489	57.72
528.851	51.72
529.213	48.72
529.575	51.72
529.937	71.72
530.299	53.72
530.661	53.72
531.023	58.72
531.384	52.72
531.746	56.72
532.108	55.72
532.47	51.72
532.831	59.72
533.193	55.72
533.554	66.72
533.916	49.72
534.277	59.72
534.639	50.72
535	48.72
535.361	62.72
535.723	65.72
536.084	61.72
536.445	79.72
536.806	128.72
537.167	87.72
537.528	65.72
537.889	73.72
538.25	69.72
538.611	61.72
538.972	60.72
539.333	65.72
539.693	89.72
540.054	101.72
540.415	57.72
540.775	59.72
541.136	61.72
541.496	58.72
541.857	77.72
542.217	64.72
542.578	68.72
542.938	88.72
543.298	60.72
543.658	73.72
544.019	75.72
544.379	71.72
544.739	72.72
545.099	69.72
545.459	75.72
545.819	75.72
546.179	68.72
546.539	99.72
546.899	73.72
547.258	83.72
547.618	74.72
547.978	82.72
548.337	85.72
548.697	69.72
549.056	95.72
549.416	78.72
549.775	78.72
550.135	82.72
550.494	77.72
550.854	88.72
551.213	90.72
551.572	80.72
551.931	80.72
552.29	81.72
552.649	81.72
553.008	81.72
553.367	115.72
553.726	97.72
554.085	76.72
554.444	180.72
554.803	73.72
555.162	93.72
555.52	76.72
555.879	83.72
556.238	82.72
556.596	75.72
556.955	90.72
557.313	95.72
557.672	90.72
558.03	79.72
558.388	81.72
558.747	102.72
559.105	84.72
559.463	88.72
559.821	76.72
560.179	89.72
560.537	85.72
560.896	83.72
561.253	87.72
561.611	76.72
561.969	87.72
562.327	89.72
562.685	96.72
563.043	83.72
563.4	88.72
563.758	94.72
564.116	101.72
564.473	88.72
564.831	86.72
565.188	96.72
565.546	126.72
565.903	93.72
566.26	93.72
566.617	99.72
566.975	105.72
567.332	97.72
567.689	93.72
568.046	97.72
568.403	104.72
568.76	85.72
569.117	104.72
569.474	104.72
569.831	97.72
570.188	102.72
570.544	93.72
570.901	100.72
571.258	124.72
571.614	95.72
571.971	108.72
572.328	93.72
572.684	99.72
573.04	112.72
573.397	96.72
573.753	115.72
574.109	103.72
574.466	103.72
574.822	90.72
575.178	107.72
575.534	102.72
575.89	114.72
576.246	102.72
576.602	107.72
576.958	110.72
577.314	106.72
577.67	103.72
578.026	104.72
578.381	107.72
578.737	100.72
579.093	108.72
579.448	118.72
579.804	134.72
580.159	116.72
580.515	96.72
580.87	112.72
581.226	105.72
581.581	125.72
581.936	117.72
582.291	103.72
582.647	104.72
583.002	127.72
583.357	112.72
583.712	104.72
584.067	104.72
584.422	111.72
584.777	101.72
585.131	100.72
585.486	103.72
585.841	102.72
586.196	139.72
586.55	106.72
586.905	113.72
587.26	103.72
587.614	95.72
587.969	128.72
588.323	108.72
588.677	121.72
589.032	110.72
589.386	110.72
589.74	137.72
590.094	124.72
590.449	125.72
590.803	146.72
591.157	107.72
591.511	135.72
591.865	122.72
592.219	135.72
592.573	105.72
592.926	99.72
593.28	101.72
593.634	138.72
593.988	99.72
594.341	97.72
594.695	114.72
595.048	98.72
595.402	94.72
595.755	93.72
596.109	116.72
596.462	117.72
596.815	100.72
597.169	115.72
597.522	102.72
597.875	145.72
598.228	102.72
598.581	98.72
598.934	133.72
599.287	96.72
599.64	106.72
599.993	99.72
600.346	99.72
600.698	97.72
601.051	98.72
601.404	97.72
601.757	100.72
602.109	110.72
602.462	101.72
602.814	89.72
603.167	100.72
603.519	97.72
603.871	113.72
604.224	96.72
604.576	89.72
604.928	118.72
605.28	98.72
605.633	97.72
605.985	104.72
606.337	92.72
606.689	95.72
607.041	119.72
607.392	95.72
607.744	97.72
608.096	91.72
608.448	92.72
608.8	97.72
609.151	92.72
609.503	96.72
609.854	89.72
610.206	122.72
610.557	94.72
610.909	82.72
611.26	107.72
611.612	85.72
611.963	80.72
612.314	107.72
612.665	91.72
613.016	88.72
613.367	80.72
613.719	103.72
614.07	79.72
614.42	84.72
614.771	83.72
615.122	91.72
615.473	87.72
615.824	79.72
616.174	94.72
616.525	87.72
616.876	75.72
617.226	82.72
617.577	80.72
617.927	78.72
618.278	79.72
618.628	132.72
618.979	87.72
619.329	84.72
619.679	97.72
620.029	86.72
620.379	73.72
620.729	86.72
621.08	78.72
621.43	94.72
621.779	100.72
622.129	74.72
622.479	79.72
622.829	73.72
623.179	71.72
623.529	58.72
623.878	74.72
624.228	64.72
624.577	71.72
624.927	69.72
625.276	64.72
625.626	76.72
625.975	81.72
626.325	62.72
626.674	112.72
627.023	64.72
627.372	60.72
627.722	95.72
628.071	85.72
628.42	76.72
628.769	104.72
629.118	65.72
629.467	70.72
629.815	75.72
630.164	57.72
630.513	68.72
630.862	103.72
631.21	72.72
631.559	60.72
631.908	57.72
632.256	59.72
632.605	54.72
632.953	60.72
633.302	56.72
633.65	73.72
633.998	125.72
634.346	72.72
634.695	58.72
635.043	56.72
635.391	77.72
635.739	51.72
636.087	61.72
636.435	73.72
636.783	58.72
637.131	54.72
637.479	61.72
637.826	56.72
638.174	49.72
638.522	57.72
638.869	101.72
639.217	50.72
639.564	59.72
639.912	47.72
640.259	54.72
640.607	49.72
640.954	66.72
641.301	59.72
641.649	45.72
641.996	48.72
642.343	59.72
642.69	50.72
643.037	61.72
643.384	76.72
643.731	52.72
644.078	75.72
644.425	41.72
644.772	45.72
645.119	40.72
645.465	40.72
645.812	45.72
646.159	52.72
646.505	49.72
646.852	65.72
647.198	45.72
647.545	49.72
647.891	56.72
648.237	58.72
648.584	45.72
648.93	47.72
649.276	46.72
649.622	60.72
649.969	61.72
650.315	52.72
650.661	51.72
651.007	43.72
651.352	58.72
651.698	36.72
652.044	41.72
652.39	55.72
652.736	45.72
653.081	40.72
653.427	40.72
653.773	46.72
654.118	42.72
654.464	38.72
654.809	50.72
655.154	32.72
655.5	40.72
655.845	34.72
656.19	38.72
656.536	34.72
656.881	39.72
657.226	30.72
657.571	97.72
657.916	33.72
658.261	29.72
658.606	38.72
658.951	26.72
659.295	31.72
659.64	28.72
659.985	34.72
660.33	24.72
660.674	35.72
661.019	33.72
661.363	32.72
661.708	35.72
662.052	17.72
662.397	18.72
662.741	32.72
663.085	26.72
663.429	40.72
663.774	75.72
664.118	21.72
664.462	29.72
664.806	23.72
665.15	43.72
665.494	26.72
665.838	23.72
666.182	39.72
666.526	28.72
666.869	19.72
667.213	26.72
667.557	31.72
667.9	30.72
668.244	28.72
668.587	30.72
668.931	25.72
669.274	26.72
669.618	22.72
669.961	32.72
670.304	24.72
670.648	28.72
670.991	19.72
671.334	14.72
671.677	20.72
672.02	20.72
672.363	20.72
672.706	17.72
673.049	29.72
673.392	15.72
673.735	19.72
674.077	14.72
674.42	21.72
674.763	18.72
675.105	16.72
675.448	31.72
675.79	20.72
676.133	24.72
676.475	15.72
676.818	21.72
677.16	18.72
677.502	28.72
677.844	46.72
678.187	12.72
678.529	48.72
678.871	30.72
679.213	20.72
679.555	25.72
679.897	25.72
680.239	25.72
680.58	20.72
680.922	27.72
681.264	34.72
681.606	24.72
681.947	22.72
682.289	21.72
682.631	59.72
682.972	22.72
683.313	24.72
683.655	26.72
683.996	19.72
684.338	19.72
684.679	14.72
685.02	13.72
685.361	28.72
685.702	21.72
686.043	31.72
686.384	18.72
686.725	16.72
687.066	28.72
687.407	13.72
687.748	15.72
688.089	37.72
688.43	18.72
688.77	58.72
689.111	25.72
689.451	24.72
689.792	21.72
690.132	20.72
690.473	18.72
690.813	17.72
691.154	22.72
691.494	25.72
691.834	32.72
692.174	16.72
692.515	22.72
692.855	18.72
693.195	28.72
693.535	26.72
693.875	15.72
694.215	20.72
694.554	30.72
694.894	21.72
695.234	26.72
695.574	21.72
695.913	30.72
696.253	23.72
696.593	29.72
696.932	22.72
697.272	20.72
697.611	14.72
697.95	28.72
698.29	20.72
698.629	24.72
698.968	19.72
699.307	17.72
699.647	24.72
699.986	28.72
700.325	25.72
700.664	12.72
701.003	24.72
701.341	15.72
701.68	11.72
702.019	12.72
702.358	18.72
702.697	20.72
703.035	21.72
703.374	20.72
703.712	32.72
704.051	14.72
704.389	24.72
704.728	17.72
705.066	17.72
705.404	20.72
705.743	24.72
706.081	16.72
706.419	10.72
706.757	22.72
707.095	30.72
707.433	24.72
707.771	16.72
708.109	14.72
708.447	21.72
708.785	24.72
709.123	31.72
709.46	19.72
709.798	11.72
710.136	28.72
710.473	22.72
710.811	24.72
711.148	26.72
711.486	17.72
711.823	17.72
712.16	19.72
712.498	14.72
712.835	25.72
713.172	15.72
713.509	24.72
713.846	72.72
714.183	26.72
714.52	16.72
714.857	11.72
715.194	21.72
715.531	15.72
715.868	27.72
716.205	14.72
716.541	24.72
716.878	27.72
717.215	14.72
717.551	27.72
717.888	20.72
718.224	77.72
718.561	20.72
718.897	18.72
719.233	11.72
719.57	17.72
719.906	13.72
720.242	13.72
720.578	10.72
720.914	18.72
721.25	17.72
721.586	13.72
721.922	16.72
722.258	27.72
722.594	12.72
722.929	24.72
723.265	14.72
723.601	16.72
723.937	29.72
724.272	9.72
724.608	26.72
724.943	14.72
725.279	6.72
725.614	8.72
725.949	24.72
726.285	21.72
726.62	40.72
726.955	12.72
727.29	14.72
727.625	10.72
727.96	26.72
728.295	35.72
728.63	21.72
728.965	9.72
729.3	12.72
729.635	56.72
729.97	18.72
730.304	12.72
730.639	14.72
730.974	10.72
731.308	28.72
731.643	6.72
731.977	25.72
732.311	24.72
732.646	7.72
732.98	14.72
733.314	8.72
733.649	23.72
733.983	16.72
734.317	45.72
734.651	14.72
734.985	17.72
735.319	11.72
735.653	18.72
735.987	26.72
736.321	31.72
736.654	7.72
736.988	20.72
737.322	29.72
737.655	20.72
737.989	21.72
738.322	17.72
738.656	9.72
738.989	10.72
739.323	16.72
739.656	17.72
739.989	30.72
740.323	9.72
740.656	5.72
740.989	9.72
741.322	16.72
741.655	22.72
741.988	33.72
742.321	24.72
742.654	11.72
742.987	12.72
743.319	17.72
743.652	16.72
743.985	23.72
744.317	5.72
744.65	7.72
744.983	23.72
745.315	6.72
745.648	12.72
745.98	14.72
746.312	10.72
746.645	11.72
746.977	22.72
747.309	14.72
747.641	15.72
747.973	21.72
748.305	5.72
748.637	9.72
748.969	12.72
749.301	26.72
749.633	10.72
749.965	6.72
750.297	19.72
750.628	19.72
750.96	14.72
751.292	31.72
751.623	14.72
751.955	16.72
752.286	23.72
752.618	12.72
752.949	11.72
753.28	22.72
753.611	8.72
753.943	14.72
754.274	17.72
754.605	15.72
754.936	15.72
755.267	8.72
755.598	24.72
755.929	10.72
756.26	10.72
756.591	136.72
756.921	12.72
757.252	16.72
757.583	12.72
757.913	11.72
758.244	11.72
758.574	18.72
758.905	6.72
759.235	22.72
759.566	5.72
759.896	30.72
760.226	18.72
760.557	6.72
760.887	1.72
761.217	14.72
761.547	26.72
761.877	15.72
762.207	27.72
762.537	15.72
762.867	12.72
763.197	42.72
763.526	11.72
763.856	23.72
764.186	15.72
764.515	5.72
764.845	3.72
765.175	20.72
765.504	16.72
765.833	1.72
766.163	7.72
766.492	9.72
766.821	9.72
767.151	10.72
767.48	9.72
767.809	15.72
768.138	19.72
768.467	10.72
768.796	15.72
769.125	7.72
769.454	9.72
769.783	15.72
770.112	16.72
770.44	18.72
770.769	3.72
771.098	24.72
771.426	15.72
771.755	7.72
772.083	2.72
772.412	9.72
772.74	5.72
773.069	74.72
773.397	15.72
773.725	3.72
774.053	44.72
774.381	25.72
774.71	22.72
775.038	3.72
775.366	10.72
775.693	9.72
776.021	15.72
776.349	6.72
776.677	13.72
777.005	11.72
777.332	15.72
777.66	2.72
777.988	14.72
778.315	22.72
778.643	13.72
778.97	3.72
779.298	4.72
779.625	5.72
779.952	12.72
780.28	14.72
780.607	15.72
780.934	16.72
781.261	13.72
781.588	10.72
781.915	25.72
782.242	21.72
782.569	32.72
782.896	20.72
783.223	17.72
783.549	23.72
783.876	22.72
784.203	5.72
784.529	31.72
784.856	21.72
785.182	15.72
785.509	26.72
785.835	11.72
786.162	13.72
786.488	10.72
786.814	6.72
787.14	19.72
787.466	20.72
787.793	23.72
788.119	5.72
788.445	4.72
788.771	20.72
789.097	11.72
789.422	12.72
789.748	4.72
790.074	9.72
790.4	30.72
790.725	19.72
791.051	81.72
791.376	17.72
791.702	16.72
792.027	11.72
792.353	13.72
792.678	20.72
793.004	28.72
793.329	15.72
793.654	7.72
793.979	14.72
794.304	8.72
794.629	17.72
794.954	11.72
795.279	18.72
795.604	20.72
795.929	12.72
796.254	9.72
796.579	2.72
796.903	82.72
797.228	10.72
797.553	39.72
797.877	6.72
798.202	21.72
798.526	12.72
798.851	8.72
799.175	16.72
799.499	11.72
799.823	7.72
800.148	4.72
800.472	0.72
800.796	4.72
801.12	14.72
801.444	15.72
801.768	9.72
802.092	17.72
802.416	16.72
802.74	24.72
803.063	15.72
803.387	22.72
803.711	94.72
804.034	22.72
804.358	17.72
804.681	20.72
805.005	19.72
805.328	17.72
805.652	-0.28
805.975	7.72
806.298	20.72
806.621	10.72
806.944	18.72
807.268	31.72
807.591	26.72
