Data from USB2G147421__31__12-53-32-227.txt Node

Date: Tue Jun 28 12:53:32 UTC 2022
User: yes
Spectrometer: USB2G14742
Trigger mode: 4
Integration Time (sec): 2.000000E0
Scans to average: 1
Electric dark correction enabled: true
Nonlinearity correction enabled: false
Boxcar width: 0
XAxis mode: Wavelengths
Number of Pixels in Spectrum: 2048
>>>>>Begin Spectral Data<<<<<
339.471	-152.78
339.856	-2.78
340.241	-4.78
340.625	-2.78
341.01	-1.78
341.395	39.22
341.779	8.22
342.163	5.22
342.548	11.22
342.932	14.22
343.317	11.22
343.701	9.22
344.085	10.22
344.469	6.22
344.853	6.22
345.238	8.22
345.622	11.22
346.006	24.22
346.39	6.22
346.774	10.22
347.157	11.22
347.541	13.22
347.925	4.22
348.309	13.22
348.693	28.22
349.076	8.22
349.46	26.22
349.843	12.22
350.227	9.22
350.61	66.22
350.994	18.22
351.377	10.22
351.761	32.22
352.144	26.22
352.527	1.22
352.91	9.22
353.294	14.22
353.677	17.22
354.06	15.22
354.443	95.22
354.826	7.22
355.209	5.22
355.592	6.22
355.975	5.22
356.358	21.22
356.74	21.22
357.123	8.22
357.506	12.22
357.889	8.22
358.271	21.22
358.654	10.22
359.036	14.22
359.419	11.22
359.801	12.22
360.184	14.22
360.566	14.22
360.948	28.22
361.331	12.22
361.713	12.22
362.095	20.22
362.477	9.22
362.859	8.22
363.241	12.22
363.623	7.22
364.005	13.22
364.387	24.22
364.769	6.22
365.151	16.22
365.533	31.22
365.915	29.22
366.296	14.22
366.678	64.22
367.06	10.22
367.441	17.22
367.823	24.22
368.204	12.22
368.586	12.22
368.967	17.22
369.348	19.22
369.73	17.22
370.111	13.22
370.492	5.22
370.873	14.22
371.255	42.22
371.636	11.22
372.017	17.22
372.398	22.22
372.779	22.22
373.16	9.22
373.54	5.22
373.921	11.22
374.302	2.22
374.683	22.22
375.064	11.22
375.444	8.22
375.825	16.22
376.205	15.22
376.586	23.22
376.966	12.22
377.347	14.22
377.727	9.22
378.108	10.22
378.488	12.22
378.868	6.22
379.248	10.22
379.629	10.22
380.009	43.22
380.389	10.22
380.769	18.22
381.149	9.22
381.529	23.22
381.909	24.22
382.289	13.22
382.668	94.22
383.048	15.22
383.428	6.22
383.808	11.22
384.187	6.22
384.567	19.22
384.946	5.22
385.326	17.22
385.705	21.22
386.085	3.22
386.464	20.22
386.844	13.22
387.223	13.22
387.602	14.22
387.981	16.22
388.361	10.22
388.74	16.22
389.119	8.22
389.498	10.22
389.877	12.22
390.256	9.22
390.635	21.22
391.013	16.22
391.392	7.22
391.771	47.22
392.15	18.22
392.528	17.22
392.907	7.22
393.286	16.22
393.664	24.22
394.043	8.22
394.421	14.22
394.8	12.22
395.178	6.22
395.556	22.22
395.935	15.22
396.313	12.22
396.691	14.22
397.069	6.22
397.447	4.22
397.825	13.22
398.203	14.22
398.581	27.22
398.959	9.22
399.337	17.22
399.715	76.22
400.093	9.22
400.471	8.22
400.848	5.22
401.226	18.22
401.604	11.22
401.981	14.22
402.359	14.22
402.736	8.22
403.114	47.22
403.491	19.22
403.868	20.22
404.246	56.22
404.623	28.22
405	15.22
405.377	8.22
405.755	17.22
406.132	7.22
406.509	1.22
406.886	8.22
407.263	22.22
407.64	6.22
408.017	13.22
408.393	14.22
408.77	20.22
409.147	12.22
409.524	12.22
409.9	13.22
410.277	18.22
410.653	16.22
411.03	14.22
411.406	4.22
411.783	32.22
412.159	18.22
412.536	20.22
412.912	7.22
413.288	28.22
413.664	4.22
414.04	7.22
414.417	23.22
414.793	9.22
415.169	14.22
415.545	21.22
415.921	17.22
416.297	28.22
416.672	5.22
417.048	6.22
417.424	7.22
417.8	42.22
418.175	7.22
418.551	4.22
418.927	9.22
419.302	74.22
419.678	21.22
420.053	12.22
420.429	22.22
420.804	9.22
421.179	8.22
421.554	10.22
421.93	9.22
422.305	69.22
422.68	15.22
423.055	15.22
423.43	16.22
423.805	10.22
424.18	7.22
424.555	21.22
424.93	18.22
425.305	8.22
425.68	14.22
426.054	10.22
426.429	20.22
426.804	18.22
427.178	22.22
427.553	10.22
427.927	59.22
428.302	10.22
428.676	14.22
429.051	9.22
429.425	6.22
429.799	23.22
430.174	14.22
430.548	9.22
430.922	26.22
431.296	13.22
431.67	25.22
432.044	25.22
432.418	5.22
432.792	7.22
433.166	11.22
433.54	22.22
433.914	21.22
434.287	17.22
434.661	10.22
435.035	13.22
435.408	18.22
435.782	15.22
436.156	18.22
436.529	60.22
436.903	13.22
437.276	13.22
437.649	30.22
438.023	55.22
438.396	16.22
438.769	17.22
439.142	15.22
439.515	28.22
439.889	19.22
440.262	24.22
440.635	39.22
441.008	23.22
441.38	24.22
441.753	16.22
442.126	16.22
442.499	11.22
442.872	73.22
443.244	53.22
443.617	13.22
443.99	30.22
444.362	22.22
444.735	12.22
445.107	23.22
445.48	51.22
445.852	13.22
446.224	17.22
446.597	20.22
446.969	24.22
447.341	34.22
447.713	30.22
448.085	14.22
448.457	28.22
448.829	19.22
449.201	29.22
449.573	26.22
449.945	24.22
450.317	18.22
450.689	18.22
451.061	25.22
451.432	22.22
451.804	27.22
452.176	39.22
452.547	23.22
452.919	19.22
453.29	25.22
453.662	27.22
454.033	19.22
454.404	39.22
454.776	17.22
455.147	12.22
455.518	28.22
455.889	27.22
456.26	24.22
456.631	30.22
457.002	21.22
457.373	23.22
457.744	38.22
458.115	21.22
458.486	29.22
458.857	15.22
459.228	25.22
459.598	15.22
459.969	19.22
460.34	34.22
460.71	16.22
461.081	14.22
461.451	31.22
461.822	24.22
462.192	12.22
462.563	13.22
462.933	20.22
463.303	18.22
463.673	28.22
464.044	27.22
464.414	28.22
464.784	27.22
465.154	17.22
465.524	20.22
465.894	26.22
466.264	19.22
466.634	24.22
467.003	23.22
467.373	17.22
467.743	33.22
468.113	28.22
468.482	23.22
468.852	25.22
469.221	24.22
469.591	18.22
469.96	33.22
470.33	13.22
470.699	70.22
471.068	11.22
471.438	27.22
471.807	26.22
472.176	30.22
472.545	49.22
472.914	17.22
473.283	23.22
473.652	22.22
474.021	36.22
474.39	21.22
474.759	27.22
475.128	16.22
475.497	16.22
475.865	14.22
476.234	17.22
476.603	14.22
476.971	14.22
477.34	13.22
477.708	30.22
478.077	17.22
478.445	20.22
478.814	17.22
479.182	23.22
479.55	19.22
479.919	9.22
480.287	13.22
480.655	33.22
481.023	13.22
481.391	17.22
481.759	17.22
482.127	18.22
482.495	15.22
482.863	21.22
483.231	8.22
483.598	22.22
483.966	27.22
484.334	20.22
484.701	22.22
485.069	31.22
485.437	45.22
485.804	15.22
486.172	19.22
486.539	21.22
486.906	16.22
487.274	30.22
487.641	26.22
488.008	27.22
488.375	34.22
488.743	21.22
489.11	23.22
489.477	12.22
489.844	18.22
490.211	17.22
490.578	20.22
490.945	28.22
491.311	27.22
491.678	25.22
492.045	33.22
492.412	14.22
492.778	22.22
493.145	29.22
493.511	22.22
493.878	27.22
494.244	21.22
494.611	27.22
494.977	21.22
495.344	19.22
495.71	68.22
496.076	18.22
496.442	29.22
496.808	16.22
497.175	28.22
497.541	21.22
497.907	24.22
498.273	47.22
498.638	44.22
499.004	22.22
499.37	23.22
499.736	60.22
500.102	21.22
500.467	31.22
500.833	21.22
501.199	31.22
501.564	27.22
501.93	24.22
502.295	38.22
502.661	27.22
503.026	36.22
503.391	30.22
503.757	35.22
504.122	24.22
504.487	28.22
504.852	38.22
505.217	36.22
505.582	23.22
505.947	34.22
506.312	35.22
506.677	35.22
507.042	31.22
507.407	43.22
507.772	56.22
508.136	50.22
508.501	45.22
508.866	32.22
509.23	55.22
509.595	37.22
509.959	40.22
510.324	35.22
510.688	55.22
511.053	47.22
511.417	98.22
511.781	38.22
512.146	37.22
512.51	62.22
512.874	82.22
513.238	37.22
513.602	31.22
513.966	47.22
514.33	47.22
514.694	27.22
515.058	36.22
515.422	56.22
515.785	57.22
516.149	42.22
516.513	49.22
516.876	46.22
517.24	50.22
517.604	38.22
517.967	58.22
518.331	38.22
518.694	46.22
519.057	54.22
519.421	43.22
519.784	47.22
520.147	65.22
520.51	70.22
520.873	43.22
521.237	53.22
521.6	52.22
521.963	41.22
522.326	49.22
522.688	41.22
523.051	54.22
523.414	58.22
523.777	131.22
524.14	50.22
524.502	60.22
524.865	49.22
525.228	54.22
525.59	53.22
525.953	65.22
526.315	53.22
526.677	51.22
527.04	99.22
527.402	62.22
527.764	48.22
528.127	50.22
528.489	55.22
528.851	60.22
529.213	59.22
529.575	51.22
529.937	73.22
530.299	51.22
530.661	58.22
531.023	61.22
531.384	52.22
531.746	60.22
532.108	60.22
532.47	55.22
532.831	63.22
533.193	47.22
533.554	71.22
533.916	49.22
534.277	66.22
534.639	53.22
535	59.22
535.361	69.22
535.723	75.22
536.084	63.22
536.445	85.22
536.806	134.22
537.167	95.22
537.528	67.22
537.889	79.22
538.25	65.22
538.611	73.22
538.972	62.22
539.333	69.22
539.693	91.22
540.054	259.22
540.415	65.22
540.775	66.22
541.136	74.22
541.496	56.22
541.857	80.22
542.217	71.22
542.578	85.22
542.938	92.22
543.298	75.22
543.658	73.22
544.019	75.22
544.379	79.22
544.739	71.22
545.099	76.22
545.459	76.22
545.819	85.22
546.179	69.22
546.539	98.22
546.899	70.22
547.258	87.22
547.618	77.22
547.978	91.22
548.337	88.22
548.697	73.22
549.056	100.22
549.416	83.22
549.775	82.22
550.135	85.22
550.494	76.22
550.854	95.22
551.213	87.22
551.572	85.22
551.931	89.22
552.29	82.22
552.649	89.22
553.008	74.22
553.367	114.22
553.726	107.22
554.085	85.22
554.444	186.22
554.803	82.22
555.162	94.22
555.52	82.22
555.879	98.22
556.238	86.22
556.596	77.22
556.955	91.22
557.313	97.22
557.672	99.22
558.03	91.22
558.388	82.22
558.747	105.22
559.105	85.22
559.463	88.22
559.821	79.22
560.179	97.22
560.537	90.22
560.896	86.22
561.253	81.22
561.611	84.22
561.969	87.22
562.327	87.22
562.685	95.22
563.043	90.22
563.4	91.22
563.758	104.22
564.116	100.22
564.473	90.22
564.831	86.22
565.188	93.22
565.546	133.22
565.903	97.22
566.26	100.22
566.617	96.22
566.975	108.22
567.332	97.22
567.689	94.22
568.046	99.22
568.403	109.22
568.76	96.22
569.117	105.22
569.474	98.22
569.831	91.22
570.188	101.22
570.544	98.22
570.901	98.22
571.258	133.22
571.614	103.22
571.971	113.22
572.328	91.22
572.684	96.22
573.04	120.22
573.397	95.22
573.753	122.22
574.109	109.22
574.466	117.22
574.822	101.22
575.178	109.22
575.534	103.22
575.89	115.22
576.246	105.22
576.602	115.22
576.958	111.22
577.314	119.22
577.67	104.22
578.026	106.22
578.381	105.22
578.737	108.22
579.093	115.22
579.448	121.22
579.804	142.22
580.159	108.22
580.515	95.22
580.87	119.22
581.226	112.22
581.581	124.22
581.936	119.22
582.291	113.22
582.647	108.22
583.002	126.22
583.357	101.22
583.712	115.22
584.067	106.22
584.422	110.22
584.777	118.22
585.131	117.22
585.486	112.22
585.841	105.22
586.196	124.22
586.55	109.22
586.905	110.22
587.26	110.22
587.614	108.22
587.969	126.22
588.323	112.22
588.677	126.22
589.032	125.22
589.386	111.22
589.74	134.22
590.094	129.22
590.449	127.22
590.803	147.22
591.157	111.22
591.511	144.22
591.865	124.22
592.219	129.22
592.573	113.22
592.926	109.22
593.28	108.22
593.634	140.22
593.988	111.22
594.341	101.22
594.695	115.22
595.048	106.22
595.402	108.22
595.755	97.22
596.109	129.22
596.462	121.22
596.815	108.22
597.169	123.22
597.522	103.22
597.875	152.22
598.228	114.22
598.581	107.22
598.934	143.22
599.287	97.22
599.64	117.22
599.993	104.22
600.346	106.22
600.698	101.22
601.051	109.22
601.404	102.22
601.757	100.22
602.109	113.22
602.462	106.22
602.814	99.22
603.167	105.22
603.519	101.22
603.871	111.22
604.224	108.22
604.576	99.22
604.928	125.22
605.28	104.22
605.633	109.22
605.985	115.22
606.337	105.22
606.689	94.22
607.041	128.22
607.392	92.22
607.744	100.22
608.096	89.22
608.448	96.22
608.8	102.22
609.151	96.22
609.503	98.22
609.854	95.22
610.206	123.22
610.557	101.22
610.909	85.22
611.26	105.22
611.612	99.22
611.963	86.22
612.314	108.22
612.665	94.22
613.016	98.22
613.367	89.22
613.719	117.22
614.07	91.22
614.42	83.22
614.771	87.22
615.122	95.22
615.473	85.22
615.824	83.22
616.174	100.22
616.525	74.22
616.876	78.22
617.226	83.22
617.577	87.22
617.927	83.22
618.278	74.22
618.628	153.22
618.979	92.22
619.329	89.22
619.679	98.22
620.029	93.22
620.379	81.22
620.729	101.22
621.08	83.22
621.43	98.22
621.779	107.22
622.129	85.22
622.479	83.22
622.829	79.22
623.179	79.22
623.529	75.22
623.878	80.22
624.228	71.22
624.577	66.22
624.927	72.22
625.276	67.22
625.626	83.22
625.975	92.22
626.325	72.22
626.674	115.22
627.023	69.22
627.372	77.22
627.722	96.22
628.071	93.22
628.42	75.22
628.769	110.22
629.118	76.22
629.467	72.22
629.815	77.22
630.164	56.22
630.513	73.22
630.862	107.22
631.21	72.22
631.559	72.22
631.908	65.22
632.256	60.22
632.605	54.22
632.953	61.22
633.302	55.22
633.65	79.22
633.998	128.22
634.346	79.22
634.695	56.22
635.043	53.22
635.391	85.22
635.739	52.22
636.087	67.22
636.435	75.22
636.783	68.22
637.131	48.22
637.479	70.22
637.826	56.22
638.174	59.22
638.522	60.22
638.869	105.22
639.217	55.22
639.564	54.22
639.912	48.22
640.259	56.22
640.607	60.22
640.954	67.22
641.301	66.22
641.649	51.22
641.996	55.22
642.343	61.22
642.69	57.22
643.037	60.22
643.384	86.22
643.731	50.22
644.078	82.22
644.425	48.22
644.772	53.22
645.119	47.22
645.465	47.22
645.812	53.22
646.159	59.22
646.505	56.22
646.852	73.22
647.198	43.22
647.545	53.22
647.891	51.22
648.237	63.22
648.584	57.22
648.93	44.22
649.276	54.22
649.622	54.22
649.969	64.22
650.315	53.22
650.661	56.22
651.007	50.22
651.352	59.22
651.698	37.22
652.044	43.22
652.39	56.22
652.736	44.22
653.081	38.22
653.427	43.22
653.773	44.22
654.118	46.22
654.464	42.22
654.809	52.22
655.154	35.22
655.5	43.22
655.845	36.22
656.19	38.22
656.536	43.22
656.881	41.22
657.226	27.22
657.571	94.22
657.916	38.22
658.261	34.22
658.606	36.22
658.951	26.22
659.295	33.22
659.64	27.22
659.985	32.22
660.33	30.22
660.674	35.22
661.019	37.22
661.363	39.22
661.708	38.22
662.052	24.22
662.397	33.22
662.741	36.22
663.085	28.22
663.429	43.22
663.774	76.22
664.118	25.22
664.462	29.22
664.806	22.22
665.15	48.22
665.494	22.22
665.838	24.22
666.182	38.22
666.526	33.22
666.869	27.22
667.213	22.22
667.557	36.22
667.9	42.22
668.244	30.22
668.587	35.22
668.931	25.22
669.274	24.22
669.618	26.22
669.961	34.22
670.304	27.22
670.648	29.22
670.991	19.22
671.334	19.22
671.677	14.22
672.02	19.22
672.363	19.22
672.706	26.22
673.049	31.22
673.392	28.22
673.735	22.22
674.077	16.22
674.42	26.22
674.763	23.22
675.105	25.22
675.448	36.22
675.79	22.22
676.133	30.22
676.475	19.22
676.818	21.22
677.16	17.22
677.502	28.22
677.844	37.22
678.187	19.22
678.529	51.22
678.871	33.22
679.213	24.22
679.555	27.22
679.897	33.22
680.239	20.22
680.58	22.22
680.922	33.22
681.264	39.22
681.606	28.22
681.947	26.22
682.289	28.22
682.631	58.22
682.972	17.22
683.313	28.22
683.655	26.22
683.996	18.22
684.338	23.22
684.679	16.22
685.02	13.22
685.361	29.22
685.702	25.22
686.043	29.22
686.384	21.22
686.725	24.22
687.066	38.22
687.407	15.22
687.748	21.22
688.089	50.22
688.43	22.22
688.77	58.22
689.111	36.22
689.451	25.22
689.792	29.22
690.132	22.22
690.473	26.22
690.813	22.22
691.154	29.22
691.494	25.22
691.834	25.22
692.174	16.22
692.515	17.22
692.855	21.22
693.195	26.22
693.535	23.22
693.875	19.22
694.215	29.22
694.554	33.22
694.894	19.22
695.234	26.22
695.574	30.22
695.913	30.22
696.253	26.22
696.593	34.22
696.932	23.22
697.272	22.22
697.611	17.22
697.95	33.22
698.29	18.22
698.629	29.22
698.968	18.22
699.307	15.22
699.647	22.22
699.986	29.22
700.325	22.22
700.664	20.22
701.003	22.22
701.341	15.22
701.68	16.22
702.019	13.22
702.358	16.22
702.697	30.22
703.035	28.22
703.374	20.22
703.712	29.22
704.051	13.22
704.389	28.22
704.728	16.22
705.066	16.22
705.404	27.22
705.743	28.22
706.081	18.22
706.419	13.22
706.757	20.22
707.095	41.22
707.433	25.22
707.771	23.22
708.109	14.22
708.447	25.22
708.785	28.22
709.123	29.22
709.46	21.22
709.798	16.22
710.136	29.22
710.473	26.22
710.811	29.22
711.148	28.22
711.486	18.22
711.823	12.22
712.16	24.22
712.498	23.22
712.835	27.22
713.172	24.22
713.509	32.22
713.846	80.22
714.183	31.22
714.52	17.22
714.857	16.22
715.194	14.22
715.531	23.22
715.868	31.22
716.205	13.22
716.541	26.22
716.878	30.22
717.215	21.22
717.551	28.22
717.888	23.22
718.224	72.22
718.561	28.22
718.897	17.22
719.233	15.22
719.57	17.22
719.906	14.22
720.242	10.22
720.578	10.22
720.914	23.22
721.25	21.22
721.586	12.22
721.922	8.22
722.258	30.22
722.594	16.22
722.929	19.22
723.265	19.22
723.601	27.22
723.937	37.22
724.272	14.22
724.608	24.22
724.943	9.22
725.279	9.22
725.614	11.22
725.949	21.22
726.285	18.22
726.62	45.22
726.955	9.22
727.29	20.22
727.625	15.22
727.96	22.22
728.295	37.22
728.63	24.22
728.965	6.22
729.3	22.22
729.635	68.22
729.97	16.22
730.304	14.22
730.639	15.22
730.974	15.22
731.308	29.22
731.643	10.22
731.977	26.22
732.311	29.22
732.646	13.22
732.98	16.22
733.314	4.22
733.649	20.22
733.983	24.22
734.317	44.22
734.651	12.22
734.985	17.22
735.319	13.22
735.653	17.22
735.987	20.22
736.321	36.22
736.654	9.22
736.988	23.22
737.322	28.22
737.655	21.22
737.989	22.22
738.322	13.22
738.656	17.22
738.989	19.22
739.323	13.22
739.656	19.22
739.989	28.22
740.323	11.22
740.656	13.22
740.989	12.22
741.322	17.22
741.655	22.22
741.988	38.22
742.321	30.22
742.654	12.22
742.987	11.22
743.319	15.22
743.652	22.22
743.985	26.22
744.317	12.22
744.65	7.22
744.983	25.22
745.315	13.22
745.648	18.22
745.98	18.22
746.312	15.22
746.645	18.22
746.977	31.22
747.309	18.22
747.641	11.22
747.973	28.22
748.305	11.22
748.637	15.22
748.969	13.22
749.301	22.22
749.633	10.22
749.965	6.22
750.297	14.22
750.628	22.22
750.96	23.22
751.292	32.22
751.623	15.22
751.955	19.22
752.286	26.22
752.618	10.22
752.949	9.22
753.28	25.22
753.611	6.22
753.943	11.22
754.274	22.22
754.605	17.22
754.936	20.22
755.267	12.22
755.598	18.22
755.929	14.22
756.26	8.22
756.591	145.22
756.921	13.22
757.252	16.22
757.583	14.22
757.913	12.22
758.244	9.22
758.574	20.22
758.905	8.22
759.235	25.22
759.566	6.22
759.896	37.22
760.226	24.22
760.557	3.22
760.887	6.22
761.217	9.22
761.547	24.22
761.877	18.22
762.207	34.22
762.537	15.22
762.867	14.22
763.197	41.22
763.526	11.22
763.856	22.22
764.186	18.22
764.515	6.22
764.845	4.22
765.175	18.22
765.504	13.22
765.833	3.22
766.163	11.22
766.492	9.22
766.821	14.22
767.151	19.22
767.48	12.22
767.809	17.22
768.138	16.22
768.467	9.22
768.796	10.22
769.125	13.22
769.454	10.22
769.783	16.22
770.112	15.22
770.44	24.22
770.769	10.22
771.098	19.22
771.426	15.22
771.755	8.22
772.083	13.22
772.412	15.22
772.74	13.22
773.069	82.22
773.397	26.22
773.725	5.22
774.053	50.22
774.381	24.22
774.71	27.22
775.038	6.22
775.366	7.22
775.693	13.22
776.021	18.22
776.349	10.22
776.677	15.22
777.005	10.22
777.332	18.22
777.66	9.22
777.988	18.22
778.315	29.22
778.643	15.22
778.97	11.22
779.298	10.22
779.625	9.22
779.952	11.22
780.28	17.22
780.607	17.22
780.934	22.22
781.261	21.22
781.588	11.22
781.915	23.22
782.242	21.22
782.569	34.22
782.896	18.22
783.223	12.22
783.549	25.22
783.876	20.22
784.203	10.22
784.529	36.22
784.856	16.22
785.182	27.22
785.509	29.22
785.835	15.22
786.162	13.22
786.488	12.22
786.814	6.22
787.14	22.22
787.466	24.22
787.793	20.22
788.119	6.22
788.445	14.22
788.771	31.22
789.097	10.22
789.422	14.22
789.748	8.22
790.074	7.22
790.4	27.22
790.725	13.22
791.051	79.22
791.376	13.22
791.702	16.22
792.027	22.22
792.353	9.22
792.678	17.22
793.004	22.22
793.329	24.22
793.654	12.22
793.979	18.22
794.304	10.22
794.629	18.22
794.954	11.22
795.279	12.22
795.604	25.22
795.929	18.22
796.254	11.22
796.579	6.22
796.903	72.22
797.228	9.22
797.553	33.22
797.877	9.22
798.202	26.22
798.526	12.22
798.851	9.22
799.175	20.22
799.499	14.22
799.823	8.22
800.148	10.22
800.472	9.22
800.796	13.22
801.12	21.22
801.444	19.22
801.768	13.22
802.092	13.22
802.416	15.22
802.74	26.22
803.063	16.22
803.387	23.22
803.711	89.22
804.034	18.22
804.358	18.22
804.681	26.22
805.005	16.22
805.328	18.22
805.652	9.22
805.975	8.22
