Data from USB2G147421__78__13-09-10-080.txt Node

Date: Tue Jun 28 13:09:10 UTC 2022
User: yes
Spectrometer: USB2G14742
Trigger mode: 4
Integration Time (sec): 2.000000E0
Scans to average: 1
Electric dark correction enabled: true
Nonlinearity correction enabled: false
Boxcar width: 0
XAxis mode: Wavelengths
Number of Pixels in Spectrum: 2048
>>>>>Begin Spectral Data<<<<<
339.471	-152.78
339.856	0.22
340.241	-4.78
340.625	-0.78
341.01	-3.78
341.395	36.22
341.779	14.22
342.163	10.22
342.548	8.22
342.932	11.22
343.317	9.22
343.701	8.22
344.085	8.22
344.469	9.22
344.853	3.22
345.238	3.22
345.622	11.22
346.006	29.22
346.39	6.22
346.774	14.22
347.157	12.22
347.541	10.22
347.925	1.22
348.309	8.22
348.693	32.22
349.076	10.22
349.46	21.22
349.843	13.22
350.227	8.22
350.61	67.22
350.994	19.22
351.377	13.22
351.761	33.22
352.144	29.22
352.527	8.22
352.91	8.22
353.294	9.22
353.677	12.22
354.06	18.22
354.443	93.22
354.826	5.22
355.209	1.22
355.592	3.22
355.975	7.22
356.358	21.22
356.74	14.22
357.123	10.22
357.506	9.22
357.889	8.22
358.271	16.22
358.654	10.22
359.036	15.22
359.419	10.22
359.801	9.22
360.184	11.22
360.566	13.22
360.948	26.22
361.331	12.22
361.713	5.22
362.095	20.22
362.477	9.22
362.859	7.22
363.241	18.22
363.623	11.22
364.005	19.22
364.387	22.22
364.769	14.22
365.151	14.22
365.533	31.22
365.915	27.22
366.296	10.22
366.678	57.22
367.06	11.22
367.441	12.22
367.823	25.22
368.204	11.22
368.586	14.22
368.967	11.22
369.348	18.22
369.73	23.22
370.111	8.22
370.492	8.22
370.873	16.22
371.255	36.22
371.636	9.22
372.017	16.22
372.398	24.22
372.779	13.22
373.16	13.22
373.54	9.22
373.921	10.22
374.302	10.22
374.683	16.22
375.064	14.22
375.444	7.22
375.825	19.22
376.205	12.22
376.586	18.22
376.966	10.22
377.347	15.22
377.727	11.22
378.108	10.22
378.488	11.22
378.868	4.22
379.248	15.22
379.629	11.22
380.009	39.22
380.389	9.22
380.769	20.22
381.149	12.22
381.529	21.22
381.909	28.22
382.289	16.22
382.668	93.22
383.048	19.22
383.428	6.22
383.808	12.22
384.187	8.22
384.567	14.22
384.946	7.22
385.326	19.22
385.705	19.22
386.085	9.22
386.464	21.22
386.844	19.22
387.223	10.22
387.602	10.22
387.981	16.22
388.361	10.22
388.74	16.22
389.119	10.22
389.498	17.22
389.877	13.22
390.256	5.22
390.635	24.22
391.013	16.22
391.392	5.22
391.771	50.22
392.15	15.22
392.528	18.22
392.907	3.22
393.286	12.22
393.664	19.22
394.043	11.22
394.421	14.22
394.8	16.22
395.178	14.22
395.556	17.22
395.935	13.22
396.313	9.22
396.691	19.22
397.069	10.22
397.447	12.22
397.825	12.22
398.203	11.22
398.581	24.22
398.959	11.22
399.337	15.22
399.715	74.22
400.093	9.22
400.471	9.22
400.848	8.22
401.226	19.22
401.604	9.22
401.981	12.22
402.359	13.22
402.736	9.22
403.114	36.22
403.491	12.22
403.868	24.22
404.246	57.22
404.623	24.22
405	18.22
405.377	9.22
405.755	20.22
406.132	6.22
406.509	5.22
406.886	15.22
407.263	24.22
407.64	9.22
408.017	21.22
408.393	16.22
408.77	20.22
409.147	10.22
409.524	15.22
409.9	18.22
410.277	18.22
410.653	17.22
411.03	21.22
411.406	8.22
411.783	39.22
412.159	22.22
412.536	16.22
412.912	6.22
413.288	32.22
413.664	5.22
414.04	8.22
414.417	20.22
414.793	11.22
415.169	17.22
415.545	24.22
415.921	23.22
416.297	31.22
416.672	8.22
417.048	19.22
417.424	11.22
417.8	44.22
418.175	11.22
418.551	6.22
418.927	6.22
419.302	72.22
419.678	24.22
420.053	8.22
420.429	21.22
420.804	9.22
421.179	10.22
421.554	14.22
421.93	14.22
422.305	66.22
422.68	20.22
423.055	15.22
423.43	12.22
423.805	18.22
424.18	10.22
424.555	16.22
424.93	13.22
425.305	8.22
425.68	11.22
426.054	15.22
426.429	14.22
426.804	16.22
427.178	23.22
427.553	9.22
427.927	68.22
428.302	14.22
428.676	12.22
429.051	12.22
429.425	9.22
429.799	30.22
430.174	12.22
430.548	8.22
430.922	26.22
431.296	14.22
431.67	22.22
432.044	25.22
432.418	12.22
432.792	13.22
433.166	8.22
433.54	19.22
433.914	24.22
434.287	21.22
434.661	9.22
435.035	10.22
435.408	14.22
435.782	22.22
436.156	18.22
436.529	55.22
436.903	8.22
437.276	14.22
437.649	32.22
438.023	58.22
438.396	15.22
438.769	18.22
439.142	16.22
439.515	25.22
439.889	16.22
440.262	21.22
440.635	32.22
441.008	32.22
441.38	20.22
441.753	18.22
442.126	19.22
442.499	21.22
442.872	72.22
443.244	61.22
443.617	12.22
443.99	30.22
444.362	21.22
444.735	10.22
445.107	16.22
445.48	49.22
445.852	14.22
446.224	23.22
446.597	14.22
446.969	22.22
447.341	33.22
447.713	27.22
448.085	9.22
448.457	24.22
448.829	19.22
449.201	28.22
449.573	27.22
449.945	27.22
450.317	21.22
450.689	21.22
451.061	26.22
451.432	21.22
451.804	29.22
452.176	39.22
452.547	18.22
452.919	22.22
453.29	28.22
453.662	23.22
454.033	21.22
454.404	33.22
454.776	16.22
455.147	21.22
455.518	25.22
455.889	24.22
456.26	24.22
456.631	24.22
457.002	19.22
457.373	21.22
457.744	36.22
458.115	26.22
458.486	28.22
458.857	21.22
459.228	27.22
459.598	16.22
459.969	20.22
460.34	31.22
460.71	15.22
461.081	19.22
461.451	32.22
461.822	32.22
462.192	14.22
462.563	15.22
462.933	19.22
463.303	19.22
463.673	33.22
464.044	25.22
464.414	27.22
464.784	23.22
465.154	18.22
465.524	24.22
465.894	22.22
466.264	23.22
466.634	23.22
467.003	22.22
467.373	18.22
467.743	33.22
468.113	25.22
468.482	20.22
468.852	24.22
469.221	22.22
469.591	19.22
469.96	33.22
470.33	16.22
470.699	73.22
471.068	14.22
471.438	20.22
471.807	29.22
472.176	32.22
472.545	43.22
472.914	16.22
473.283	25.22
473.652	19.22
474.021	45.22
474.39	20.22
474.759	29.22
475.128	16.22
475.497	11.22
475.865	11.22
476.234	19.22
476.603	9.22
476.971	20.22
477.34	21.22
477.708	34.22
478.077	20.22
478.445	21.22
478.814	22.22
479.182	22.22
479.55	20.22
479.919	11.22
480.287	15.22
480.655	31.22
481.023	13.22
481.391	19.22
481.759	21.22
482.127	18.22
482.495	20.22
482.863	26.22
483.231	12.22
483.598	23.22
483.966	28.22
484.334	22.22
484.701	27.22
485.069	24.22
485.437	43.22
485.804	16.22
486.172	21.22
486.539	19.22
486.906	19.22
487.274	30.22
487.641	24.22
488.008	31.22
488.375	40.22
488.743	26.22
489.11	25.22
489.477	17.22
489.844	15.22
490.211	18.22
490.578	14.22
490.945	25.22
491.311	24.22
491.678	24.22
492.045	35.22
492.412	10.22
492.778	22.22
493.145	35.22
493.511	20.22
493.878	30.22
494.244	23.22
494.611	27.22
494.977	23.22
495.344	19.22
495.71	64.22
496.076	15.22
496.442	36.22
496.808	18.22
497.175	25.22
497.541	17.22
497.907	20.22
498.273	36.22
498.638	50.22
499.004	21.22
499.37	22.22
499.736	63.22
500.102	27.22
500.467	37.22
500.833	26.22
501.199	38.22
501.564	27.22
501.93	25.22
502.295	36.22
502.661	30.22
503.026	36.22
503.391	21.22
503.757	36.22
504.122	25.22
504.487	27.22
504.852	42.22
505.217	32.22
505.582	25.22
505.947	37.22
506.312	38.22
506.677	36.22
507.042	36.22
507.407	39.22
507.772	54.22
508.136	54.22
508.501	42.22
508.866	31.22
509.23	60.22
509.595	44.22
509.959	41.22
510.324	31.22
510.688	49.22
511.053	43.22
511.417	91.22
511.781	40.22
512.146	32.22
512.51	59.22
512.874	85.22
513.238	42.22
513.602	38.22
513.966	42.22
514.33	41.22
514.694	36.22
515.058	34.22
515.422	57.22
515.785	63.22
516.149	41.22
516.513	56.22
516.876	47.22
517.24	45.22
517.604	38.22
517.967	47.22
518.331	39.22
518.694	43.22
519.057	45.22
519.421	46.22
519.784	48.22
520.147	54.22
520.51	72.22
520.873	45.22
521.237	51.22
521.6	51.22
521.963	45.22
522.326	47.22
522.688	40.22
523.051	51.22
523.414	53.22
523.777	132.22
524.14	49.22
524.502	52.22
524.865	54.22
525.228	57.22
525.59	53.22
525.953	55.22
526.315	55.22
526.677	55.22
527.04	93.22
527.402	52.22
527.764	54.22
528.127	49.22
528.489	63.22
528.851	55.22
529.213	48.22
529.575	55.22
529.937	70.22
530.299	54.22
530.661	53.22
531.023	58.22
531.384	53.22
531.746	55.22
532.108	52.22
532.47	61.22
532.831	58.22
533.193	49.22
533.554	63.22
533.916	56.22
534.277	73.22
534.639	55.22
535	59.22
535.361	61.22
535.723	65.22
536.084	65.22
536.445	80.22
536.806	128.22
537.167	91.22
537.528	62.22
537.889	82.22
538.25	71.22
538.611	69.22
538.972	63.22
539.333	67.22
539.693	90.22
540.054	111.22
540.415	61.22
540.775	62.22
541.136	63.22
541.496	57.22
541.857	81.22
542.217	65.22
542.578	72.22
542.938	92.22
543.298	74.22
543.658	76.22
544.019	78.22
544.379	73.22
544.739	73.22
545.099	73.22
545.459	73.22
545.819	73.22
546.179	71.22
546.539	92.22
546.899	75.22
547.258	89.22
547.618	80.22
547.978	91.22
548.337	88.22
548.697	76.22
549.056	92.22
549.416	82.22
549.775	81.22
550.135	80.22
550.494	76.22
550.854	89.22
551.213	82.22
551.572	82.22
551.931	80.22
552.29	76.22
552.649	85.22
553.008	86.22
553.367	116.22
553.726	103.22
554.085	82.22
554.444	179.22
554.803	75.22
555.162	96.22
555.52	86.22
555.879	96.22
556.238	85.22
556.596	81.22
556.955	90.22
557.313	97.22
557.672	92.22
558.03	78.22
558.388	91.22
558.747	101.22
559.105	84.22
559.463	80.22
559.821	77.22
560.179	95.22
560.537	87.22
560.896	87.22
561.253	85.22
561.611	77.22
561.969	90.22
562.327	91.22
562.685	89.22
563.043	87.22
563.4	95.22
563.758	100.22
564.116	100.22
564.473	93.22
564.831	88.22
565.188	101.22
565.546	119.22
565.903	102.22
566.26	97.22
566.617	98.22
566.975	117.22
567.332	87.22
567.689	88.22
568.046	93.22
568.403	117.22
568.76	91.22
569.117	95.22
569.474	98.22
569.831	100.22
570.188	106.22
570.544	92.22
570.901	103.22
571.258	127.22
571.614	96.22
571.971	116.22
572.328	99.22
572.684	102.22
573.04	119.22
573.397	98.22
573.753	121.22
574.109	106.22
574.466	111.22
574.822	106.22
575.178	105.22
575.534	104.22
575.89	120.22
576.246	100.22
576.602	114.22
576.958	113.22
577.314	107.22
577.67	99.22
578.026	111.22
578.381	113.22
578.737	99.22
579.093	112.22
579.448	113.22
579.804	131.22
580.159	116.22
580.515	102.22
580.87	113.22
581.226	117.22
581.581	121.22
581.936	112.22
582.291	105.22
582.647	107.22
583.002	120.22
583.357	114.22
583.712	114.22
584.067	110.22
584.422	106.22
584.777	113.22
585.131	112.22
585.486	100.22
585.841	109.22
586.196	126.22
586.55	109.22
586.905	111.22
587.26	107.22
587.614	101.22
587.969	133.22
588.323	108.22
588.677	122.22
589.032	107.22
589.386	125.22
589.74	142.22
590.094	122.22
590.449	132.22
590.803	138.22
591.157	118.22
591.511	147.22
591.865	128.22
592.219	129.22
592.573	101.22
592.926	110.22
593.28	104.22
593.634	140.22
593.988	112.22
594.341	101.22
594.695	113.22
595.048	100.22
595.402	98.22
595.755	96.22
596.109	128.22
596.462	124.22
596.815	110.22
597.169	117.22
597.522	105.22
597.875	149.22
598.228	116.22
598.581	111.22
598.934	132.22
599.287	96.22
599.64	121.22
599.993	98.22
600.346	99.22
600.698	103.22
601.051	102.22
601.404	102.22
601.757	97.22
602.109	115.22
602.462	111.22
602.814	91.22
603.167	103.22
603.519	101.22
603.871	114.22
604.224	106.22
604.576	95.22
604.928	124.22
605.28	109.22
605.633	102.22
605.985	114.22
606.337	100.22
606.689	83.22
607.041	110.22
607.392	88.22
607.744	103.22
608.096	92.22
608.448	93.22
608.8	84.22
609.151	88.22
609.503	90.22
609.854	95.22
610.206	119.22
610.557	102.22
610.909	91.22
611.26	105.22
611.612	97.22
611.963	79.22
612.314	103.22
612.665	94.22
613.016	88.22
613.367	84.22
613.719	101.22
614.07	82.22
614.42	79.22
614.771	83.22
615.122	101.22
615.473	83.22
615.824	92.22
616.174	92.22
616.525	84.22
616.876	77.22
617.226	85.22
617.577	80.22
617.927	79.22
618.278	80.22
618.628	143.22
618.979	85.22
619.329	80.22
619.679	94.22
620.029	88.22
620.379	69.22
620.729	95.22
621.08	80.22
621.43	96.22
621.779	99.22
622.129	82.22
622.479	79.22
622.829	77.22
623.179	72.22
623.529	70.22
623.878	80.22
624.228	62.22
624.577	71.22
624.927	66.22
625.276	69.22
625.626	81.22
625.975	85.22
626.325	70.22
626.674	114.22
627.023	66.22
627.372	74.22
627.722	91.22
628.071	89.22
628.42	85.22
628.769	111.22
629.118	72.22
629.467	74.22
629.815	78.22
630.164	61.22
630.513	71.22
630.862	106.22
631.21	63.22
631.559	61.22
631.908	64.22
632.256	60.22
632.605	60.22
632.953	68.22
633.302	56.22
633.65	75.22
633.998	128.22
634.346	73.22
634.695	55.22
635.043	58.22
635.391	76.22
635.739	54.22
636.087	68.22
636.435	73.22
636.783	60.22
637.131	50.22
637.479	71.22
637.826	48.22
638.174	50.22
638.522	53.22
638.869	102.22
639.217	51.22
639.564	58.22
639.912	49.22
640.259	55.22
640.607	57.22
640.954	68.22
641.301	66.22
641.649	51.22
641.996	53.22
642.343	63.22
642.69	60.22
643.037	66.22
643.384	78.22
643.731	54.22
644.078	82.22
644.425	49.22
644.772	49.22
645.119	50.22
645.465	52.22
645.812	52.22
646.159	56.22
646.505	55.22
646.852	66.22
647.198	43.22
647.545	49.22
647.891	65.22
648.237	56.22
648.584	52.22
648.93	47.22
649.276	50.22
649.622	56.22
649.969	72.22
650.315	53.22
650.661	58.22
651.007	58.22
651.352	58.22
651.698	41.22
652.044	45.22
652.39	57.22
652.736	48.22
653.081	41.22
653.427	45.22
653.773	53.22
654.118	44.22
654.464	42.22
654.809	51.22
655.154	39.22
655.5	44.22
655.845	40.22
656.19	44.22
656.536	37.22
656.881	40.22
657.226	28.22
657.571	90.22
657.916	47.22
658.261	32.22
658.606	34.22
658.951	28.22
659.295	27.22
659.64	31.22
659.985	37.22
660.33	32.22
660.674	30.22
661.019	42.22
661.363	38.22
661.708	35.22
662.052	30.22
662.397	31.22
662.741	29.22
663.085	36.22
663.429	39.22
663.774	72.22
664.118	25.22
664.462	32.22
664.806	29.22
665.15	42.22
665.494	27.22
665.838	30.22
666.182	35.22
666.526	32.22
666.869	25.22
667.213	31.22
667.557	35.22
667.9	41.22
668.244	30.22
668.587	35.22
668.931	25.22
669.274	24.22
669.618	30.22
669.961	34.22
670.304	22.22
670.648	25.22
670.991	24.22
671.334	16.22
671.677	18.22
672.02	20.22
672.363	17.22
672.706	21.22
673.049	35.22
673.392	24.22
673.735	29.22
674.077	17.22
674.42	26.22
674.763	13.22
675.105	25.22
675.448	37.22
675.79	16.22
676.133	25.22
676.475	21.22
676.818	20.22
677.16	18.22
677.502	32.22
677.844	47.22
678.187	18.22
678.529	48.22
678.871	30.22
679.213	23.22
679.555	22.22
679.897	23.22
680.239	24.22
680.58	22.22
680.922	36.22
681.264	39.22
681.606	21.22
681.947	26.22
682.289	25.22
682.631	53.22
682.972	25.22
683.313	20.22
683.655	28.22
683.996	19.22
684.338	22.22
684.679	16.22
685.02	20.22
685.361	32.22
685.702	20.22
686.043	33.22
686.384	13.22
686.725	20.22
687.066	31.22
687.407	16.22
687.748	19.22
688.089	42.22
688.43	18.22
688.77	62.22
689.111	28.22
689.451	27.22
689.792	27.22
690.132	23.22
690.473	25.22
690.813	23.22
691.154	26.22
691.494	24.22
691.834	26.22
692.174	19.22
692.515	21.22
692.855	22.22
693.195	25.22
693.535	26.22
693.875	18.22
694.215	26.22
694.554	31.22
694.894	22.22
695.234	28.22
695.574	26.22
695.913	32.22
696.253	30.22
696.593	29.22
696.932	29.22
697.272	25.22
697.611	19.22
697.95	36.22
698.29	21.22
698.629	28.22
698.968	14.22
699.307	14.22
699.647	23.22
699.986	32.22
700.325	24.22
700.664	15.22
701.003	23.22
701.341	16.22
701.68	9.22
702.019	11.22
702.358	16.22
702.697	25.22
703.035	28.22
703.374	22.22
703.712	36.22
704.051	12.22
704.389	23.22
704.728	11.22
705.066	18.22
705.404	29.22
705.743	26.22
706.081	18.22
706.419	16.22
706.757	18.22
707.095	29.22
707.433	27.22
707.771	25.22
708.109	12.22
708.447	25.22
708.785	23.22
709.123	32.22
709.46	19.22
709.798	20.22
710.136	34.22
710.473	25.22
710.811	28.22
711.148	34.22
711.486	28.22
711.823	15.22
712.16	15.22
712.498	17.22
712.835	36.22
713.172	24.22
713.509	23.22
713.846	77.22
714.183	31.22
714.52	15.22
714.857	17.22
715.194	20.22
715.531	21.22
715.868	34.22
716.205	16.22
716.541	23.22
716.878	41.22
717.215	23.22
717.551	24.22
717.888	28.22
718.224	73.22
718.561	20.22
718.897	17.22
719.233	14.22
719.57	20.22
719.906	17.22
720.242	16.22
720.578	19.22
720.914	18.22
721.25	26.22
721.586	14.22
721.922	16.22
722.258	29.22
722.594	16.22
722.929	20.22
723.265	17.22
723.601	18.22
723.937	33.22
724.272	17.22
724.608	23.22
724.943	12.22
725.279	7.22
725.614	9.22
725.949	23.22
726.285	20.22
726.62	40.22
726.955	8.22
727.29	21.22
727.625	20.22
727.96	24.22
728.295	34.22
728.63	18.22
728.965	11.22
729.3	14.22
729.635	58.22
729.97	22.22
730.304	12.22
730.639	16.22
730.974	17.22
731.308	19.22
731.643	7.22
731.977	27.22
732.311	17.22
732.646	12.22
732.98	18.22
733.314	6.22
733.649	24.22
733.983	22.22
734.317	41.22
734.651	16.22
734.985	17.22
735.319	15.22
735.653	17.22
735.987	27.22
736.321	32.22
736.654	15.22
736.988	26.22
737.322	29.22
737.655	20.22
737.989	22.22
738.322	17.22
738.656	18.22
738.989	17.22
739.323	20.22
739.656	20.22
739.989	37.22
740.323	17.22
740.656	14.22
740.989	11.22
741.322	11.22
741.655	20.22
741.988	35.22
742.321	32.22
742.654	19.22
742.987	12.22
743.319	15.22
743.652	23.22
743.985	25.22
744.317	9.22
744.65	14.22
744.983	24.22
745.315	11.22
745.648	11.22
745.98	16.22
746.312	11.22
746.645	11.22
746.977	25.22
747.309	20.22
747.641	13.22
747.973	21.22
748.305	7.22
748.637	12.22
748.969	13.22
749.301	22.22
749.633	17.22
749.965	2.22
750.297	11.22
750.628	24.22
750.96	25.22
751.292	35.22
751.623	16.22
751.955	19.22
752.286	22.22
752.618	9.22
752.949	5.22
753.28	24.22
753.611	9.22
753.943	16.22
754.274	26.22
754.605	16.22
754.936	15.22
755.267	11.22
755.598	25.22
755.929	10.22
756.26	12.22
756.591	141.22
756.921	13.22
757.252	17.22
757.583	17.22
757.913	12.22
758.244	10.22
758.574	19.22
758.905	6.22
759.235	25.22
759.566	9.22
759.896	35.22
760.226	20.22
760.557	1.22
760.887	3.22
761.217	15.22
761.547	26.22
761.877	21.22
762.207	25.22
762.537	14.22
762.867	14.22
763.197	42.22
763.526	13.22
763.856	24.22
764.186	22.22
764.515	3.22
764.845	6.22
765.175	15.22
765.504	12.22
765.833	5.22
766.163	12.22
766.492	12.22
766.821	12.22
767.151	21.22
767.48	10.22
767.809	15.22
768.138	18.22
768.467	7.22
768.796	13.22
769.125	10.22
769.454	10.22
769.783	18.22
770.112	13.22
770.44	23.22
770.769	13.22
771.098	20.22
771.426	14.22
771.755	12.22
772.083	10.22
772.412	14.22
772.74	10.22
773.069	80.22
773.397	20.22
773.725	8.22
774.053	45.22
774.381	25.22
774.71	23.22
775.038	8.22
775.366	9.22
775.693	14.22
776.021	21.22
776.349	17.22
776.677	11.22
777.005	10.22
777.332	14.22
777.66	8.22
777.988	18.22
778.315	22.22
778.643	19.22
778.97	14.22
779.298	10.22
779.625	12.22
779.952	17.22
780.28	19.22
780.607	15.22
780.934	21.22
781.261	20.22
781.588	17.22
781.915	28.22
782.242	25.22
782.569	38.22
782.896	19.22
783.223	14.22
783.549	17.22
783.876	20.22
784.203	12.22
784.529	33.22
784.856	23.22
785.182	21.22
785.509	28.22
785.835	21.22
786.162	17.22
786.488	13.22
786.814	7.22
787.14	16.22
787.466	20.22
787.793	24.22
788.119	11.22
788.445	10.22
788.771	26.22
789.097	18.22
789.422	16.22
789.748	12.22
790.074	13.22
790.4	31.22
790.725	18.22
791.051	78.22
791.376	17.22
791.702	20.22
792.027	20.22
792.353	10.22
792.678	26.22
793.004	27.22
793.329	24.22
793.654	11.22
793.979	16.22
794.304	11.22
794.629	14.22
794.954	14.22
795.279	14.22
795.604	24.22
795.929	11.22
796.254	10.22
796.579	8.22
796.903	68.22
797.228	8.22
797.553	31.22
797.877	14.22
798.202	26.22
798.526	14.22
798.851	11.22
799.175	23.22
799.499	14.22
799.823	13.22
800.148	13.22
800.472	8.22
800.796	12.22
801.12	15.22
801.444	18.22
801.768	15.22
802.092	17.22
802.416	16.22
802.74	21.22
803.063	16.22
803.387	18.22
803.711	92.22
804.034	17.22
804.358	16.22
804.681	21.22
805.005	21.22
805.328	14.22
805.652	3.22
