Data from USB2G147421__27__12-48-57-833.txt Node

Date: Tue Jun 28 12:48:57 UTC 2022
User: yes
Spectrometer: USB2G14742
Trigger mode: 4
Integration Time (sec): 2.000000E0
Scans to average: 1
Electric dark correction enabled: true
Nonlinearity correction enabled: false
Boxcar width: 0
XAxis mode: Wavelengths
Number of Pixels in Spectrum: 2048
>>>>>Begin Spectral Data<<<<<
339.471	-152.78
339.856	-6.78
340.241	-4.78
340.625	-0.78
341.01	-8.78
341.395	40.22
341.779	7.22
342.163	5.22
342.548	11.22
342.932	15.22
343.317	9.22
343.701	14.22
344.085	7.22
344.469	5.22
344.853	4.22
345.238	6.22
345.622	18.22
346.006	30.22
346.39	4.22
346.774	8.22
347.157	10.22
347.541	13.22
347.925	2.22
348.309	11.22
348.693	26.22
349.076	8.22
349.46	27.22
349.843	9.22
350.227	10.22
350.61	69.22
350.994	11.22
351.377	10.22
351.761	33.22
352.144	27.22
352.527	4.22
352.91	8.22
353.294	9.22
353.677	15.22
354.06	12.22
354.443	85.22
354.826	6.22
355.209	3.22
355.592	4.22
355.975	10.22
356.358	23.22
356.74	21.22
357.123	12.22
357.506	6.22
357.889	6.22
358.271	15.22
358.654	11.22
359.036	22.22
359.419	7.22
359.801	11.22
360.184	10.22
360.566	15.22
360.948	30.22
361.331	12.22
361.713	4.22
362.095	21.22
362.477	7.22
362.859	9.22
363.241	11.22
363.623	6.22
364.005	20.22
364.387	18.22
364.769	8.22
365.151	14.22
365.533	32.22
365.915	28.22
366.296	11.22
366.678	61.22
367.06	11.22
367.441	10.22
367.823	22.22
368.204	12.22
368.586	8.22
368.967	15.22
369.348	19.22
369.73	16.22
370.111	13.22
370.492	7.22
370.873	14.22
371.255	40.22
371.636	8.22
372.017	10.22
372.398	22.22
372.779	19.22
373.16	9.22
373.54	8.22
373.921	8.22
374.302	5.22
374.683	11.22
375.064	12.22
375.444	7.22
375.825	12.22
376.205	13.22
376.586	23.22
376.966	9.22
377.347	13.22
377.727	13.22
378.108	10.22
378.488	8.22
378.868	9.22
379.248	13.22
379.629	10.22
380.009	39.22
380.389	10.22
380.769	12.22
381.149	10.22
381.529	29.22
381.909	24.22
382.289	15.22
382.668	96.22
383.048	12.22
383.428	8.22
383.808	7.22
384.187	14.22
384.567	20.22
384.946	10.22
385.326	15.22
385.705	23.22
386.085	9.22
386.464	20.22
386.844	20.22
387.223	13.22
387.602	12.22
387.981	12.22
388.361	11.22
388.74	15.22
389.119	8.22
389.498	14.22
389.877	20.22
390.256	8.22
390.635	19.22
391.013	19.22
391.392	9.22
391.771	46.22
392.15	15.22
392.528	11.22
392.907	5.22
393.286	16.22
393.664	22.22
394.043	9.22
394.421	18.22
394.8	16.22
395.178	5.22
395.556	12.22
395.935	15.22
396.313	14.22
396.691	18.22
397.069	9.22
397.447	5.22
397.825	17.22
398.203	12.22
398.581	23.22
398.959	9.22
399.337	18.22
399.715	77.22
400.093	11.22
400.471	9.22
400.848	8.22
401.226	9.22
401.604	7.22
401.981	9.22
402.359	19.22
402.736	8.22
403.114	38.22
403.491	14.22
403.868	20.22
404.246	51.22
404.623	20.22
405	11.22
405.377	9.22
405.755	18.22
406.132	2.22
406.509	5.22
406.886	15.22
407.263	24.22
407.64	9.22
408.017	17.22
408.393	13.22
408.77	13.22
409.147	13.22
409.524	18.22
409.9	15.22
410.277	20.22
410.653	13.22
411.03	19.22
411.406	11.22
411.783	39.22
412.159	13.22
412.536	17.22
412.912	6.22
413.288	28.22
413.664	9.22
414.04	5.22
414.417	19.22
414.793	15.22
415.169	12.22
415.545	24.22
415.921	15.22
416.297	26.22
416.672	8.22
417.048	11.22
417.424	5.22
417.8	40.22
418.175	9.22
418.551	4.22
418.927	2.22
419.302	75.22
419.678	28.22
420.053	8.22
420.429	17.22
420.804	13.22
421.179	4.22
421.554	10.22
421.93	8.22
422.305	59.22
422.68	18.22
423.055	16.22
423.43	10.22
423.805	9.22
424.18	2.22
424.555	13.22
424.93	13.22
425.305	9.22
425.68	16.22
426.054	12.22
426.429	16.22
426.804	17.22
427.178	17.22
427.553	5.22
427.927	63.22
428.302	12.22
428.676	14.22
429.051	15.22
429.425	8.22
429.799	28.22
430.174	12.22
430.548	16.22
430.922	23.22
431.296	9.22
431.67	23.22
432.044	24.22
432.418	8.22
432.792	9.22
433.166	4.22
433.54	23.22
433.914	28.22
434.287	16.22
434.661	7.22
435.035	13.22
435.408	12.22
435.782	19.22
436.156	25.22
436.529	57.22
436.903	12.22
437.276	10.22
437.649	32.22
438.023	54.22
438.396	15.22
438.769	16.22
439.142	14.22
439.515	31.22
439.889	22.22
440.262	22.22
440.635	30.22
441.008	24.22
441.38	24.22
441.753	19.22
442.126	9.22
442.499	16.22
442.872	76.22
443.244	58.22
443.617	11.22
443.99	28.22
444.362	20.22
444.735	7.22
445.107	15.22
445.48	50.22
445.852	19.22
446.224	16.22
446.597	27.22
446.969	21.22
447.341	33.22
447.713	27.22
448.085	8.22
448.457	23.22
448.829	12.22
449.201	28.22
449.573	30.22
449.945	27.22
450.317	22.22
450.689	27.22
451.061	20.22
451.432	16.22
451.804	26.22
452.176	42.22
452.547	19.22
452.919	30.22
453.29	25.22
453.662	22.22
454.033	21.22
454.404	34.22
454.776	24.22
455.147	17.22
455.518	22.22
455.889	23.22
456.26	24.22
456.631	35.22
457.002	23.22
457.373	25.22
457.744	34.22
458.115	26.22
458.486	26.22
458.857	14.22
459.228	23.22
459.598	16.22
459.969	15.22
460.34	28.22
460.71	12.22
461.081	22.22
461.451	29.22
461.822	24.22
462.192	15.22
462.563	14.22
462.933	18.22
463.303	23.22
463.673	28.22
464.044	23.22
464.414	24.22
464.784	19.22
465.154	22.22
465.524	20.22
465.894	25.22
466.264	19.22
466.634	22.22
467.003	23.22
467.373	18.22
467.743	31.22
468.113	30.22
468.482	19.22
468.852	20.22
469.221	21.22
469.591	16.22
469.96	31.22
470.33	19.22
470.699	70.22
471.068	17.22
471.438	23.22
471.807	30.22
472.176	32.22
472.545	43.22
472.914	12.22
473.283	24.22
473.652	21.22
474.021	38.22
474.39	14.22
474.759	27.22
475.128	11.22
475.497	11.22
475.865	8.22
476.234	18.22
476.603	14.22
476.971	16.22
477.34	17.22
477.708	33.22
478.077	15.22
478.445	18.22
478.814	16.22
479.182	20.22
479.55	19.22
479.919	17.22
480.287	18.22
480.655	34.22
481.023	9.22
481.391	26.22
481.759	24.22
482.127	20.22
482.495	18.22
482.863	16.22
483.231	9.22
483.598	14.22
483.966	26.22
484.334	20.22
484.701	28.22
485.069	25.22
485.437	44.22
485.804	17.22
486.172	20.22
486.539	17.22
486.906	18.22
487.274	32.22
487.641	21.22
488.008	25.22
488.375	36.22
488.743	23.22
489.11	23.22
489.477	16.22
489.844	15.22
490.211	14.22
490.578	20.22
490.945	30.22
491.311	25.22
491.678	30.22
492.045	43.22
492.412	11.22
492.778	21.22
493.145	30.22
493.511	19.22
493.878	24.22
494.244	21.22
494.611	26.22
494.977	16.22
495.344	16.22
495.71	69.22
496.076	16.22
496.442	36.22
496.808	17.22
497.175	32.22
497.541	18.22
497.907	24.22
498.273	43.22
498.638	47.22
499.004	23.22
499.37	26.22
499.736	56.22
500.102	18.22
500.467	36.22
500.833	30.22
501.199	35.22
501.564	34.22
501.93	25.22
502.295	38.22
502.661	29.22
503.026	35.22
503.391	32.22
503.757	36.22
504.122	28.22
504.487	34.22
504.852	41.22
505.217	38.22
505.582	29.22
505.947	38.22
506.312	38.22
506.677	33.22
507.042	39.22
507.407	46.22
507.772	53.22
508.136	53.22
508.501	48.22
508.866	32.22
509.23	55.22
509.595	35.22
509.959	37.22
510.324	30.22
510.688	49.22
511.053	45.22
511.417	97.22
511.781	37.22
512.146	33.22
512.51	58.22
512.874	82.22
513.238	35.22
513.602	40.22
513.966	47.22
514.33	40.22
514.694	39.22
515.058	37.22
515.422	56.22
515.785	57.22
516.149	45.22
516.513	56.22
516.876	40.22
517.24	44.22
517.604	38.22
517.967	59.22
518.331	39.22
518.694	40.22
519.057	48.22
519.421	53.22
519.784	55.22
520.147	62.22
520.51	69.22
520.873	46.22
521.237	49.22
521.6	56.22
521.963	46.22
522.326	53.22
522.688	39.22
523.051	48.22
523.414	49.22
523.777	124.22
524.14	44.22
524.502	52.22
524.865	48.22
525.228	58.22
525.59	59.22
525.953	63.22
526.315	50.22
526.677	57.22
527.04	85.22
527.402	59.22
527.764	56.22
528.127	51.22
528.489	59.22
528.851	54.22
529.213	50.22
529.575	49.22
529.937	73.22
530.299	62.22
530.661	62.22
531.023	53.22
531.384	50.22
531.746	56.22
532.108	58.22
532.47	59.22
532.831	59.22
533.193	57.22
533.554	67.22
533.916	54.22
534.277	67.22
534.639	58.22
535	52.22
535.361	64.22
535.723	69.22
536.084	64.22
536.445	79.22
536.806	132.22
537.167	91.22
537.528	66.22
537.889	80.22
538.25	72.22
538.611	69.22
538.972	62.22
539.333	63.22
539.693	81.22
540.054	253.22
540.415	60.22
540.775	62.22
541.136	72.22
541.496	61.22
541.857	77.22
542.217	72.22
542.578	72.22
542.938	92.22
543.298	72.22
543.658	75.22
544.019	72.22
544.379	77.22
544.739	73.22
545.099	69.22
545.459	78.22
545.819	75.22
546.179	60.22
546.539	104.22
546.899	72.22
547.258	93.22
547.618	74.22
547.978	94.22
548.337	86.22
548.697	82.22
549.056	100.22
549.416	80.22
549.775	81.22
550.135	80.22
550.494	79.22
550.854	96.22
551.213	84.22
551.572	86.22
551.931	84.22
552.29	84.22
552.649	85.22
553.008	89.22
553.367	120.22
553.726	106.22
554.085	76.22
554.444	182.22
554.803	79.22
555.162	103.22
555.52	84.22
555.879	90.22
556.238	81.22
556.596	80.22
556.955	98.22
557.313	100.22
557.672	96.22
558.03	80.22
558.388	83.22
558.747	109.22
559.105	82.22
559.463	89.22
559.821	82.22
560.179	87.22
560.537	94.22
560.896	90.22
561.253	85.22
561.611	87.22
561.969	99.22
562.327	101.22
562.685	95.22
563.043	90.22
563.4	87.22
563.758	99.22
564.116	104.22
564.473	93.22
564.831	92.22
565.188	95.22
565.546	124.22
565.903	97.22
566.26	99.22
566.617	102.22
566.975	107.22
567.332	99.22
567.689	91.22
568.046	92.22
568.403	103.22
568.76	94.22
569.117	102.22
569.474	113.22
569.831	90.22
570.188	110.22
570.544	97.22
570.901	105.22
571.258	128.22
571.614	95.22
571.971	113.22
572.328	95.22
572.684	97.22
573.04	117.22
573.397	96.22
573.753	123.22
574.109	108.22
574.466	105.22
574.822	102.22
575.178	113.22
575.534	106.22
575.89	117.22
576.246	111.22
576.602	107.22
576.958	113.22
577.314	111.22
577.67	93.22
578.026	104.22
578.381	112.22
578.737	103.22
579.093	111.22
579.448	114.22
579.804	131.22
580.159	116.22
580.515	104.22
580.87	114.22
581.226	115.22
581.581	127.22
581.936	118.22
582.291	106.22
582.647	113.22
583.002	134.22
583.357	106.22
583.712	117.22
584.067	112.22
584.422	113.22
584.777	114.22
585.131	114.22
585.486	110.22
585.841	105.22
586.196	131.22
586.55	102.22
586.905	114.22
587.26	108.22
587.614	104.22
587.969	138.22
588.323	118.22
588.677	123.22
589.032	108.22
589.386	118.22
589.74	137.22
590.094	121.22
590.449	125.22
590.803	143.22
591.157	114.22
591.511	144.22
591.865	113.22
592.219	131.22
592.573	104.22
592.926	107.22
593.28	109.22
593.634	138.22
593.988	112.22
594.341	108.22
594.695	110.22
595.048	105.22
595.402	104.22
595.755	92.22
596.109	122.22
596.462	130.22
596.815	105.22
597.169	127.22
597.522	101.22
597.875	145.22
598.228	114.22
598.581	102.22
598.934	131.22
599.287	94.22
599.64	109.22
599.993	100.22
600.346	106.22
600.698	98.22
601.051	116.22
601.404	99.22
601.757	103.22
602.109	113.22
602.462	108.22
602.814	95.22
603.167	98.22
603.519	104.22
603.871	112.22
604.224	109.22
604.576	92.22
604.928	120.22
605.28	107.22
605.633	100.22
605.985	111.22
606.337	97.22
606.689	93.22
607.041	125.22
607.392	93.22
607.744	98.22
608.096	96.22
608.448	89.22
608.8	97.22
609.151	90.22
609.503	94.22
609.854	99.22
610.206	133.22
610.557	90.22
610.909	91.22
611.26	105.22
611.612	99.22
611.963	81.22
612.314	109.22
612.665	95.22
613.016	86.22
613.367	85.22
613.719	110.22
614.07	90.22
614.42	95.22
614.771	82.22
615.122	99.22
615.473	90.22
615.824	86.22
616.174	91.22
616.525	84.22
616.876	80.22
617.226	87.22
617.577	80.22
617.927	82.22
618.278	79.22
618.628	139.22
618.979	88.22
619.329	85.22
619.679	92.22
620.029	96.22
620.379	83.22
620.729	98.22
621.08	83.22
621.43	99.22
621.779	98.22
622.129	79.22
622.479	89.22
622.829	71.22
623.179	74.22
623.529	73.22
623.878	77.22
624.228	71.22
624.577	71.22
624.927	65.22
625.276	67.22
625.626	81.22
625.975	91.22
626.325	74.22
626.674	116.22
627.023	63.22
627.372	73.22
627.722	97.22
628.071	89.22
628.42	79.22
628.769	113.22
629.118	71.22
629.467	76.22
629.815	75.22
630.164	71.22
630.513	74.22
630.862	103.22
631.21	71.22
631.559	60.22
631.908	57.22
632.256	60.22
632.605	56.22
632.953	59.22
633.302	61.22
633.65	83.22
633.998	124.22
634.346	77.22
634.695	59.22
635.043	54.22
635.391	76.22
635.739	55.22
636.087	62.22
636.435	69.22
636.783	63.22
637.131	58.22
637.479	63.22
637.826	57.22
638.174	59.22
638.522	62.22
638.869	104.22
639.217	55.22
639.564	55.22
639.912	47.22
640.259	54.22
640.607	54.22
640.954	64.22
641.301	65.22
641.649	47.22
641.996	56.22
642.343	60.22
642.69	55.22
643.037	66.22
643.384	78.22
643.731	53.22
644.078	75.22
644.425	49.22
644.772	53.22
645.119	48.22
645.465	42.22
645.812	51.22
646.159	59.22
646.505	57.22
646.852	65.22
647.198	42.22
647.545	51.22
647.891	65.22
648.237	56.22
648.584	56.22
648.93	40.22
649.276	50.22
649.622	54.22
649.969	61.22
650.315	49.22
650.661	53.22
651.007	51.22
651.352	57.22
651.698	41.22
652.044	45.22
652.39	58.22
652.736	47.22
653.081	34.22
653.427	42.22
653.773	47.22
654.118	45.22
654.464	44.22
654.809	46.22
655.154	43.22
655.5	42.22
655.845	43.22
656.19	43.22
656.536	37.22
656.881	42.22
657.226	35.22
657.571	98.22
657.916	39.22
658.261	37.22
658.606	37.22
658.951	33.22
659.295	31.22
659.64	26.22
659.985	30.22
660.33	30.22
660.674	35.22
661.019	38.22
661.363	34.22
661.708	35.22
662.052	18.22
662.397	28.22
662.741	35.22
663.085	27.22
663.429	40.22
663.774	76.22
664.118	23.22
664.462	32.22
664.806	23.22
665.15	38.22
665.494	23.22
665.838	29.22
666.182	38.22
666.526	38.22
666.869	22.22
667.213	30.22
667.557	33.22
667.9	34.22
668.244	32.22
668.587	43.22
668.931	24.22
669.274	24.22
669.618	25.22
669.961	33.22
670.304	17.22
670.648	32.22
670.991	23.22
671.334	13.22
671.677	18.22
672.02	21.22
672.363	23.22
672.706	26.22
673.049	42.22
673.392	22.22
673.735	26.22
674.077	17.22
674.42	26.22
674.763	27.22
675.105	25.22
675.448	35.22
675.79	16.22
676.133	27.22
676.475	24.22
676.818	17.22
677.16	14.22
677.502	35.22
677.844	44.22
678.187	11.22
678.529	51.22
678.871	36.22
679.213	24.22
679.555	25.22
679.897	27.22
680.239	22.22
680.58	18.22
680.922	28.22
681.264	37.22
681.606	25.22
681.947	29.22
682.289	23.22
682.631	60.22
682.972	17.22
683.313	22.22
683.655	24.22
683.996	17.22
684.338	21.22
684.679	14.22
685.02	13.22
685.361	30.22
685.702	27.22
686.043	33.22
686.384	21.22
686.725	22.22
687.066	30.22
687.407	18.22
687.748	21.22
688.089	39.22
688.43	19.22
688.77	60.22
689.111	31.22
689.451	19.22
689.792	27.22
690.132	25.22
690.473	24.22
690.813	24.22
691.154	24.22
691.494	23.22
691.834	26.22
692.174	18.22
692.515	21.22
692.855	18.22
693.195	25.22
693.535	29.22
693.875	20.22
694.215	20.22
694.554	31.22
694.894	25.22
695.234	28.22
695.574	24.22
695.913	30.22
696.253	27.22
696.593	29.22
696.932	32.22
697.272	26.22
697.611	20.22
697.95	30.22
698.29	19.22
698.629	22.22
698.968	16.22
699.307	21.22
699.647	20.22
699.986	35.22
700.325	20.22
700.664	11.22
701.003	24.22
701.341	18.22
701.68	12.22
702.019	10.22
702.358	17.22
702.697	19.22
703.035	30.22
703.374	16.22
703.712	33.22
704.051	16.22
704.389	24.22
704.728	18.22
705.066	19.22
705.404	27.22
705.743	20.22
706.081	20.22
706.419	6.22
706.757	24.22
707.095	37.22
707.433	19.22
707.771	20.22
708.109	11.22
708.447	27.22
708.785	24.22
709.123	28.22
709.46	18.22
709.798	19.22
710.136	25.22
710.473	25.22
710.811	32.22
711.148	35.22
711.486	27.22
711.823	16.22
712.16	18.22
712.498	15.22
712.835	31.22
713.172	23.22
713.509	25.22
713.846	77.22
714.183	33.22
714.52	19.22
714.857	14.22
715.194	17.22
715.531	18.22
715.868	27.22
716.205	20.22
716.541	22.22
716.878	32.22
717.215	22.22
717.551	29.22
717.888	18.22
718.224	69.22
718.561	27.22
718.897	17.22
719.233	15.22
719.57	18.22
719.906	14.22
720.242	16.22
720.578	19.22
720.914	13.22
721.25	22.22
721.586	8.22
721.922	14.22
722.258	31.22
722.594	18.22
722.929	20.22
723.265	15.22
723.601	26.22
723.937	32.22
724.272	15.22
724.608	18.22
724.943	14.22
725.279	10.22
725.614	13.22
725.949	19.22
726.285	17.22
726.62	42.22
726.955	10.22
727.29	20.22
727.625	17.22
727.96	25.22
728.295	35.22
728.63	15.22
728.965	7.22
729.3	19.22
729.635	56.22
729.97	15.22
730.304	11.22
730.639	22.22
730.974	11.22
731.308	24.22
731.643	8.22
731.977	31.22
732.311	21.22
732.646	14.22
732.98	17.22
733.314	9.22
733.649	80.22
733.983	26.22
734.317	45.22
734.651	19.22
734.985	14.22
735.319	13.22
735.653	14.22
735.987	26.22
736.321	28.22
736.654	9.22
736.988	29.22
737.322	25.22
737.655	21.22
737.989	19.22
738.322	19.22
738.656	6.22
738.989	19.22
739.323	14.22
739.656	22.22
739.989	28.22
740.323	16.22
740.656	11.22
740.989	10.22
741.322	18.22
741.655	24.22
741.988	33.22
742.321	31.22
742.654	17.22
742.987	9.22
743.319	17.22
743.652	24.22
743.985	27.22
744.317	10.22
744.65	7.22
744.983	20.22
745.315	10.22
745.648	14.22
745.98	14.22
746.312	15.22
746.645	22.22
746.977	26.22
747.309	18.22
747.641	14.22
747.973	26.22
748.305	10.22
748.637	7.22
748.969	9.22
749.301	22.22
749.633	10.22
749.965	4.22
750.297	17.22
750.628	27.22
750.96	20.22
751.292	34.22
751.623	11.22
751.955	18.22
752.286	25.22
752.618	10.22
752.949	2.22
753.28	25.22
753.611	7.22
753.943	14.22
754.274	20.22
754.605	16.22
754.936	22.22
755.267	13.22
755.598	23.22
755.929	11.22
756.26	15.22
756.591	142.22
756.921	15.22
757.252	17.22
757.583	17.22
757.913	11.22
758.244	7.22
758.574	18.22
758.905	8.22
759.235	25.22
759.566	5.22
759.896	32.22
760.226	21.22
760.557	5.22
760.887	6.22
761.217	15.22
761.547	24.22
761.877	19.22
762.207	30.22
762.537	13.22
762.867	13.22
763.197	39.22
763.526	10.22
763.856	22.22
764.186	22.22
764.515	9.22
764.845	8.22
765.175	19.22
765.504	13.22
765.833	6.22
766.163	13.22
766.492	13.22
766.821	16.22
767.151	14.22
767.48	12.22
767.809	15.22
768.138	21.22
768.467	11.22
768.796	10.22
769.125	13.22
769.454	7.22
769.783	19.22
770.112	17.22
770.44	17.22
770.769	12.22
771.098	21.22
771.426	16.22
771.755	9.22
772.083	9.22
772.412	17.22
772.74	6.22
773.069	81.22
773.397	18.22
773.725	5.22
774.053	46.22
774.381	25.22
774.71	26.22
775.038	3.22
775.366	10.22
775.693	11.22
776.021	17.22
776.349	7.22
776.677	16.22
777.005	15.22
777.332	19.22
777.66	5.22
777.988	18.22
778.315	29.22
778.643	13.22
778.97	14.22
779.298	6.22
779.625	10.22
779.952	18.22
780.28	21.22
780.607	14.22
780.934	17.22
781.261	15.22
781.588	9.22
781.915	19.22
782.242	20.22
782.569	35.22
782.896	21.22
783.223	16.22
783.549	26.22
783.876	16.22
784.203	7.22
784.529	35.22
784.856	21.22
785.182	16.22
785.509	29.22
785.835	15.22
786.162	12.22
786.488	11.22
786.814	6.22
787.14	20.22
787.466	20.22
787.793	21.22
788.119	14.22
788.445	7.22
788.771	24.22
789.097	11.22
789.422	21.22
789.748	11.22
790.074	12.22
790.4	33.22
790.725	16.22
791.051	77.22
791.376	15.22
791.702	15.22
792.027	15.22
792.353	7.22
792.678	20.22
793.004	31.22
793.329	21.22
793.654	10.22
793.979	18.22
794.304	7.22
794.629	17.22
794.954	9.22
795.279	16.22
795.604	20.22
795.929	13.22
796.254	7.22
796.579	1.22
796.903	75.22
797.228	9.22
797.553	32.22
797.877	9.22
798.202	24.22
798.526	17.22
798.851	9.22
799.175	12.22
799.499	14.22
799.823	8.22
800.148	5.22
800.472	4.22
800.796	10.22
801.12	20.22
801.444	12.22
801.768	8.22
802.092	16.22
802.416	15.22
802.74	24.22
803.063	17.22
803.387	18.22
803.711	91.22
804.034	18.22
804.358	13.22
804.681	15.22
805.005	15.22
805.328	13.22
805.652	7.22
805.975	12.22
806.298	20.22
806.621	14.22
