Data from USB2G147421__67__13-06-05-786.txt Node

Date: Tue Jun 28 13:06:05 UTC 2022
User: yes
Spectrometer: USB2G14742
Trigger mode: 4
Integration Time (sec): 2.000000E0
Scans to average: 1
Electric dark correction enabled: true
Nonlinearity correction enabled: false
Boxcar width: 0
XAxis mode: Wavelengths
Number of Pixels in Spectrum: 2048
>>>>>Begin Spectral Data<<<<<
339.471	-152.83
339.856	-1.83
340.241	-3.83
340.625	-0.83
341.01	0.17
341.395	37.17
341.779	16.17
342.163	10.17
342.548	12.17
342.932	11.17
343.317	5.17
343.701	10.17
344.085	12.17
344.469	4.17
344.853	5.17
345.238	6.17
345.622	5.17
346.006	24.17
346.39	5.17
346.774	13.17
347.157	15.17
347.541	12.17
347.925	6.17
348.309	9.17
348.693	32.17
349.076	9.17
349.46	28.17
349.843	11.17
350.227	13.17
350.61	63.17
350.994	18.17
351.377	11.17
351.761	30.17
352.144	24.17
352.527	7.17
352.91	7.17
353.294	11.17
353.677	17.17
354.06	13.17
354.443	83.17
354.826	7.17
355.209	6.17
355.592	4.17
355.975	8.17
356.358	23.17
356.74	18.17
357.123	11.17
357.506	9.17
357.889	12.17
358.271	16.17
358.654	8.17
359.036	11.17
359.419	12.17
359.801	12.17
360.184	11.17
360.566	15.17
360.948	30.17
361.331	10.17
361.713	4.17
362.095	20.17
362.477	4.17
362.859	9.17
363.241	12.17
363.623	12.17
364.005	23.17
364.387	24.17
364.769	7.17
365.151	10.17
365.533	31.17
365.915	27.17
366.296	11.17
366.678	62.17
367.06	8.17
367.441	17.17
367.823	28.17
368.204	10.17
368.586	10.17
368.967	13.17
369.348	23.17
369.73	20.17
370.111	11.17
370.492	5.17
370.873	14.17
371.255	39.17
371.636	18.17
372.017	22.17
372.398	18.17
372.779	16.17
373.16	15.17
373.54	4.17
373.921	7.17
374.302	11.17
374.683	15.17
375.064	16.17
375.444	10.17
375.825	15.17
376.205	15.17
376.586	20.17
376.966	14.17
377.347	16.17
377.727	14.17
378.108	13.17
378.488	12.17
378.868	5.17
379.248	17.17
379.629	19.17
380.009	45.17
380.389	12.17
380.769	16.17
381.149	6.17
381.529	30.17
381.909	26.17
382.289	12.17
382.668	92.17
383.048	6.17
383.428	4.17
383.808	9.17
384.187	8.17
384.567	19.17
384.946	5.17
385.326	20.17
385.705	25.17
386.085	7.17
386.464	25.17
386.844	15.17
387.223	15.17
387.602	10.17
387.981	20.17
388.361	11.17
388.74	16.17
389.119	7.17
389.498	16.17
389.877	9.17
390.256	12.17
390.635	23.17
391.013	15.17
391.392	5.17
391.771	47.17
392.15	20.17
392.528	13.17
392.907	7.17
393.286	14.17
393.664	25.17
394.043	10.17
394.421	20.17
394.8	15.17
395.178	9.17
395.556	15.17
395.935	13.17
396.313	12.17
396.691	27.17
397.069	10.17
397.447	8.17
397.825	15.17
398.203	14.17
398.581	23.17
398.959	14.17
399.337	23.17
399.715	76.17
400.093	10.17
400.471	5.17
400.848	7.17
401.226	16.17
401.604	13.17
401.981	12.17
402.359	13.17
402.736	15.17
403.114	43.17
403.491	18.17
403.868	24.17
404.246	57.17
404.623	24.17
405	11.17
405.377	7.17
405.755	18.17
406.132	8.17
406.509	6.17
406.886	20.17
407.263	23.17
407.64	3.17
408.017	9.17
408.393	19.17
408.77	15.17
409.147	10.17
409.524	15.17
409.9	18.17
410.277	15.17
410.653	19.17
411.03	21.17
411.406	8.17
411.783	38.17
412.159	16.17
412.536	22.17
412.912	12.17
413.288	27.17
413.664	9.17
414.04	8.17
414.417	19.17
414.793	17.17
415.169	21.17
415.545	23.17
415.921	18.17
416.297	34.17
416.672	9.17
417.048	16.17
417.424	15.17
417.8	40.17
418.175	15.17
418.551	6.17
418.927	6.17
419.302	71.17
419.678	23.17
420.053	9.17
420.429	14.17
420.804	14.17
421.179	9.17
421.554	13.17
421.93	14.17
422.305	69.17
422.68	20.17
423.055	18.17
423.43	15.17
423.805	9.17
424.18	12.17
424.555	18.17
424.93	11.17
425.305	4.17
425.68	12.17
426.054	14.17
426.429	19.17
426.804	22.17
427.178	22.17
427.553	8.17
427.927	65.17
428.302	7.17
428.676	11.17
429.051	18.17
429.425	12.17
429.799	22.17
430.174	10.17
430.548	15.17
430.922	26.17
431.296	11.17
431.67	23.17
432.044	25.17
432.418	10.17
432.792	10.17
433.166	12.17
433.54	18.17
433.914	21.17
434.287	17.17
434.661	12.17
435.035	11.17
435.408	15.17
435.782	22.17
436.156	20.17
436.529	55.17
436.903	10.17
437.276	14.17
437.649	26.17
438.023	54.17
438.396	17.17
438.769	20.17
439.142	16.17
439.515	24.17
439.889	22.17
440.262	25.17
440.635	34.17
441.008	28.17
441.38	21.17
441.753	22.17
442.126	16.17
442.499	18.17
442.872	78.17
443.244	63.17
443.617	15.17
443.99	30.17
444.362	22.17
444.735	10.17
445.107	20.17
445.48	51.17
445.852	15.17
446.224	21.17
446.597	20.17
446.969	23.17
447.341	34.17
447.713	24.17
448.085	13.17
448.457	28.17
448.829	23.17
449.201	28.17
449.573	25.17
449.945	24.17
450.317	17.17
450.689	23.17
451.061	26.17
451.432	21.17
451.804	25.17
452.176	40.17
452.547	26.17
452.919	25.17
453.29	25.17
453.662	29.17
454.033	16.17
454.404	38.17
454.776	20.17
455.147	24.17
455.518	27.17
455.889	24.17
456.26	26.17
456.631	30.17
457.002	24.17
457.373	22.17
457.744	33.17
458.115	24.17
458.486	24.17
458.857	16.17
459.228	27.17
459.598	20.17
459.969	18.17
460.34	31.17
460.71	15.17
461.081	21.17
461.451	29.17
461.822	24.17
462.192	17.17
462.563	17.17
462.933	19.17
463.303	19.17
463.673	29.17
464.044	20.17
464.414	24.17
464.784	24.17
465.154	21.17
465.524	24.17
465.894	22.17
466.264	20.17
466.634	24.17
467.003	21.17
467.373	20.17
467.743	27.17
468.113	32.17
468.482	22.17
468.852	30.17
469.221	24.17
469.591	25.17
469.96	36.17
470.33	17.17
470.699	76.17
471.068	12.17
471.438	20.17
471.807	25.17
472.176	32.17
472.545	42.17
472.914	13.17
473.283	26.17
473.652	16.17
474.021	40.17
474.39	22.17
474.759	30.17
475.128	11.17
475.497	12.17
475.865	10.17
476.234	24.17
476.603	14.17
476.971	16.17
477.34	17.17
477.708	29.17
478.077	16.17
478.445	16.17
478.814	11.17
479.182	27.17
479.55	23.17
479.919	17.17
480.287	15.17
480.655	31.17
481.023	14.17
481.391	20.17
481.759	24.17
482.127	21.17
482.495	18.17
482.863	17.17
483.231	12.17
483.598	23.17
483.966	29.17
484.334	21.17
484.701	31.17
485.069	20.17
485.437	51.17
485.804	14.17
486.172	17.17
486.539	23.17
486.906	15.17
487.274	34.17
487.641	23.17
488.008	22.17
488.375	38.17
488.743	27.17
489.11	21.17
489.477	15.17
489.844	17.17
490.211	16.17
490.578	18.17
490.945	27.17
491.311	26.17
491.678	25.17
492.045	41.17
492.412	12.17
492.778	24.17
493.145	30.17
493.511	22.17
493.878	30.17
494.244	23.17
494.611	24.17
494.977	20.17
495.344	21.17
495.71	65.17
496.076	15.17
496.442	27.17
496.808	21.17
497.175	27.17
497.541	20.17
497.907	27.17
498.273	42.17
498.638	47.17
499.004	27.17
499.37	26.17
499.736	62.17
500.102	23.17
500.467	30.17
500.833	28.17
501.199	42.17
501.564	27.17
501.93	30.17
502.295	40.17
502.661	31.17
503.026	31.17
503.391	31.17
503.757	32.17
504.122	27.17
504.487	28.17
504.852	40.17
505.217	33.17
505.582	31.17
505.947	36.17
506.312	38.17
506.677	34.17
507.042	34.17
507.407	41.17
507.772	57.17
508.136	56.17
508.501	51.17
508.866	34.17
509.23	57.17
509.595	47.17
509.959	43.17
510.324	31.17
510.688	48.17
511.053	38.17
511.417	96.17
511.781	34.17
512.146	31.17
512.51	60.17
512.874	82.17
513.238	41.17
513.602	33.17
513.966	45.17
514.33	41.17
514.694	35.17
515.058	38.17
515.422	51.17
515.785	64.17
516.149	44.17
516.513	58.17
516.876	47.17
517.24	43.17
517.604	40.17
517.967	53.17
518.331	35.17
518.694	42.17
519.057	50.17
519.421	42.17
519.784	50.17
520.147	59.17
520.51	67.17
520.873	43.17
521.237	47.17
521.6	52.17
521.963	46.17
522.326	55.17
522.688	39.17
523.051	49.17
523.414	56.17
523.777	127.17
524.14	47.17
524.502	52.17
524.865	57.17
525.228	60.17
525.59	58.17
525.953	65.17
526.315	53.17
526.677	55.17
527.04	94.17
527.402	62.17
527.764	50.17
528.127	52.17
528.489	55.17
528.851	54.17
529.213	56.17
529.575	49.17
529.937	73.17
530.299	46.17
530.661	56.17
531.023	59.17
531.384	59.17
531.746	47.17
532.108	62.17
532.47	58.17
532.831	57.17
533.193	56.17
533.554	63.17
533.916	60.17
534.277	68.17
534.639	59.17
535	63.17
535.361	64.17
535.723	79.17
536.084	66.17
536.445	84.17
536.806	130.17
537.167	91.17
537.528	65.17
537.889	77.17
538.25	69.17
538.611	67.17
538.972	67.17
539.333	64.17
539.693	83.17
540.054	104.17
540.415	58.17
540.775	62.17
541.136	64.17
541.496	59.17
541.857	80.17
542.217	67.17
542.578	73.17
542.938	93.17
543.298	76.17
543.658	73.17
544.019	78.17
544.379	66.17
544.739	75.17
545.099	73.17
545.459	74.17
545.819	76.17
546.179	65.17
546.539	95.17
546.899	76.17
547.258	86.17
547.618	77.17
547.978	89.17
548.337	80.17
548.697	72.17
549.056	101.17
549.416	74.17
549.775	77.17
550.135	80.17
550.494	75.17
550.854	96.17
551.213	83.17
551.572	86.17
551.931	82.17
552.29	92.17
552.649	89.17
553.008	83.17
553.367	114.17
553.726	102.17
554.085	83.17
554.444	177.17
554.803	79.17
555.162	93.17
555.52	91.17
555.879	94.17
556.238	91.17
556.596	78.17
556.955	94.17
557.313	101.17
557.672	91.17
558.03	83.17
558.388	86.17
558.747	102.17
559.105	90.17
559.463	88.17
559.821	86.17
560.179	95.17
560.537	90.17
560.896	86.17
561.253	87.17
561.611	88.17
561.969	88.17
562.327	97.17
562.685	97.17
563.043	88.17
563.4	88.17
563.758	98.17
564.116	93.17
564.473	87.17
564.831	90.17
565.188	101.17
565.546	132.17
565.903	101.17
566.26	95.17
566.617	102.17
566.975	111.17
567.332	95.17
567.689	89.17
568.046	100.17
568.403	101.17
568.76	92.17
569.117	107.17
569.474	104.17
569.831	94.17
570.188	106.17
570.544	105.17
570.901	100.17
571.258	121.17
571.614	100.17
571.971	113.17
572.328	98.17
572.684	106.17
573.04	119.17
573.397	99.17
573.753	129.17
574.109	107.17
574.466	115.17
574.822	101.17
575.178	105.17
575.534	107.17
575.89	113.17
576.246	107.17
576.602	117.17
576.958	113.17
577.314	106.17
577.67	96.17
578.026	112.17
578.381	110.17
578.737	102.17
579.093	114.17
579.448	117.17
579.804	138.17
580.159	112.17
580.515	100.17
580.87	112.17
581.226	103.17
581.581	124.17
581.936	120.17
582.291	112.17
582.647	99.17
583.002	129.17
583.357	107.17
583.712	113.17
584.067	113.17
584.422	105.17
584.777	114.17
585.131	102.17
585.486	104.17
585.841	101.17
586.196	129.17
586.55	110.17
586.905	111.17
587.26	108.17
587.614	104.17
587.969	132.17
588.323	105.17
588.677	121.17
589.032	116.17
589.386	117.17
589.74	137.17
590.094	118.17
590.449	130.17
590.803	143.17
591.157	111.17
591.511	140.17
591.865	122.17
592.219	121.17
592.573	107.17
592.926	106.17
593.28	110.17
593.634	135.17
593.988	109.17
594.341	104.17
594.695	109.17
595.048	106.17
595.402	102.17
595.755	92.17
596.109	121.17
596.462	116.17
596.815	102.17
597.169	127.17
597.522	102.17
597.875	153.17
598.228	118.17
598.581	98.17
598.934	135.17
599.287	96.17
599.64	111.17
599.993	107.17
600.346	104.17
600.698	107.17
601.051	99.17
601.404	105.17
601.757	102.17
602.109	112.17
602.462	108.17
602.814	89.17
603.167	107.17
603.519	105.17
603.871	108.17
604.224	106.17
604.576	93.17
604.928	122.17
605.28	95.17
605.633	100.17
605.985	107.17
606.337	105.17
606.689	98.17
607.041	123.17
607.392	88.17
607.744	102.17
608.096	93.17
608.448	91.17
608.8	87.17
609.151	94.17
609.503	95.17
609.854	94.17
610.206	129.17
610.557	97.17
610.909	92.17
611.26	108.17
611.612	96.17
611.963	88.17
612.314	102.17
612.665	92.17
613.016	93.17
613.367	87.17
613.719	105.17
614.07	91.17
614.42	87.17
614.771	85.17
615.122	93.17
615.473	85.17
615.824	87.17
616.174	99.17
616.525	83.17
616.876	76.17
617.226	91.17
617.577	81.17
617.927	79.17
618.278	83.17
618.628	145.17
618.979	86.17
619.329	83.17
619.679	99.17
620.029	92.17
620.379	80.17
620.729	93.17
621.08	87.17
621.43	97.17
621.779	99.17
622.129	77.17
622.479	78.17
622.829	81.17
623.179	74.17
623.529	67.17
623.878	77.17
624.228	72.17
624.577	66.17
624.927	69.17
625.276	75.17
625.626	84.17
625.975	88.17
626.325	80.17
626.674	124.17
627.023	65.17
627.372	72.17
627.722	98.17
628.071	84.17
628.42	69.17
628.769	118.17
629.118	69.17
629.467	68.17
629.815	77.17
630.164	58.17
630.513	75.17
630.862	105.17
631.21	69.17
631.559	62.17
631.908	56.17
632.256	61.17
632.605	62.17
632.953	71.17
633.302	58.17
633.65	75.17
633.998	129.17
634.346	73.17
634.695	64.17
635.043	56.17
635.391	79.17
635.739	49.17
636.087	63.17
636.435	74.17
636.783	67.17
637.131	54.17
637.479	69.17
637.826	53.17
638.174	52.17
638.522	54.17
638.869	105.17
639.217	56.17
639.564	59.17
639.912	55.17
640.259	51.17
640.607	57.17
640.954	64.17
641.301	64.17
641.649	56.17
641.996	52.17
642.343	65.17
642.69	60.17
643.037	63.17
643.384	89.17
643.731	51.17
644.078	77.17
644.425	45.17
644.772	54.17
645.119	47.17
645.465	39.17
645.812	53.17
646.159	55.17
646.505	57.17
646.852	58.17
647.198	43.17
647.545	59.17
647.891	57.17
648.237	56.17
648.584	57.17
648.93	51.17
649.276	49.17
649.622	63.17
649.969	64.17
650.315	53.17
650.661	57.17
651.007	52.17
651.352	61.17
651.698	35.17
652.044	46.17
652.39	50.17
652.736	46.17
653.081	40.17
653.427	44.17
653.773	47.17
654.118	44.17
654.464	39.17
654.809	51.17
655.154	35.17
655.5	46.17
655.845	35.17
656.19	41.17
656.536	37.17
656.881	43.17
657.226	32.17
657.571	90.17
657.916	39.17
658.261	36.17
658.606	38.17
658.951	23.17
659.295	33.17
659.64	27.17
659.985	34.17
660.33	33.17
660.674	36.17
661.019	41.17
661.363	38.17
661.708	43.17
662.052	20.17
662.397	31.17
662.741	33.17
663.085	34.17
663.429	41.17
663.774	74.17
664.118	28.17
664.462	30.17
664.806	25.17
665.15	51.17
665.494	26.17
665.838	28.17
666.182	28.17
666.526	37.17
666.869	22.17
667.213	26.17
667.557	28.17
667.9	43.17
668.244	30.17
668.587	39.17
668.931	25.17
669.274	26.17
669.618	34.17
669.961	30.17
670.304	25.17
670.648	27.17
670.991	25.17
671.334	16.17
671.677	20.17
672.02	23.17
672.363	20.17
672.706	28.17
673.049	35.17
673.392	27.17
673.735	27.17
674.077	17.17
674.42	27.17
674.763	19.17
675.105	28.17
675.448	37.17
675.79	21.17
676.133	28.17
676.475	19.17
676.818	20.17
677.16	16.17
677.502	35.17
677.844	49.17
678.187	15.17
678.529	51.17
678.871	34.17
679.213	25.17
679.555	29.17
679.897	30.17
680.239	27.17
680.58	19.17
680.922	28.17
681.264	39.17
681.606	28.17
681.947	28.17
682.289	27.17
682.631	54.17
682.972	17.17
683.313	25.17
683.655	31.17
683.996	16.17
684.338	17.17
684.679	19.17
685.02	19.17
685.361	30.17
685.702	17.17
686.043	27.17
686.384	15.17
686.725	21.17
687.066	37.17
687.407	20.17
687.748	15.17
688.089	40.17
688.43	23.17
688.77	61.17
689.111	29.17
689.451	20.17
689.792	29.17
690.132	23.17
690.473	27.17
690.813	21.17
691.154	29.17
691.494	21.17
691.834	20.17
692.174	23.17
692.515	27.17
692.855	19.17
693.195	29.17
693.535	26.17
693.875	19.17
694.215	20.17
694.554	28.17
694.894	20.17
695.234	26.17
695.574	24.17
695.913	23.17
696.253	28.17
696.593	28.17
696.932	27.17
697.272	24.17
697.611	22.17
697.95	33.17
698.29	19.17
698.629	22.17
698.968	23.17
699.307	17.17
699.647	29.17
699.986	33.17
700.325	24.17
700.664	16.17
701.003	18.17
701.341	19.17
701.68	10.17
702.019	11.17
702.358	15.17
702.697	26.17
703.035	30.17
703.374	20.17
703.712	28.17
704.051	15.17
704.389	20.17
704.728	14.17
705.066	18.17
705.404	23.17
705.743	25.17
706.081	22.17
706.419	12.17
706.757	23.17
707.095	35.17
707.433	29.17
707.771	25.17
708.109	13.17
708.447	27.17
708.785	26.17
709.123	19.17
709.46	25.17
709.798	14.17
710.136	29.17
710.473	24.17
710.811	26.17
711.148	35.17
711.486	28.17
711.823	14.17
712.16	20.17
712.498	17.17
712.835	35.17
713.172	21.17
713.509	31.17
713.846	74.17
714.183	34.17
714.52	17.17
714.857	19.17
715.194	21.17
715.531	24.17
715.868	33.17
716.205	13.17
716.541	23.17
716.878	33.17
717.215	19.17
717.551	27.17
717.888	22.17
718.224	72.17
718.561	22.17
718.897	14.17
719.233	15.17
719.57	19.17
719.906	13.17
720.242	16.17
720.578	16.17
720.914	14.17
721.25	20.17
721.586	11.17
721.922	13.17
722.258	28.17
722.594	11.17
722.929	27.17
723.265	10.17
723.601	25.17
723.937	35.17
724.272	19.17
724.608	20.17
724.943	10.17
725.279	11.17
725.614	13.17
725.949	28.17
726.285	24.17
726.62	48.17
726.955	10.17
727.29	18.17
727.625	15.17
727.96	20.17
728.295	36.17
728.63	21.17
728.965	13.17
729.3	15.17
729.635	61.17
729.97	21.17
730.304	16.17
730.639	19.17
730.974	17.17
731.308	30.17
731.643	9.17
731.977	33.17
732.311	22.17
732.646	10.17
732.98	15.17
733.314	7.17
733.649	27.17
733.983	22.17
734.317	41.17
734.651	18.17
734.985	15.17
735.319	14.17
735.653	18.17
735.987	31.17
736.321	33.17
736.654	8.17
736.988	27.17
737.322	27.17
737.655	18.17
737.989	19.17
738.322	17.17
738.656	11.17
738.989	17.17
739.323	19.17
739.656	21.17
739.989	31.17
740.323	9.17
740.656	15.17
740.989	9.17
741.322	21.17
741.655	21.17
741.988	35.17
742.321	32.17
742.654	18.17
742.987	9.17
743.319	21.17
743.652	25.17
743.985	27.17
744.317	13.17
744.65	8.17
744.983	15.17
745.315	12.17
745.648	18.17
745.98	20.17
746.312	13.17
746.645	16.17
746.977	29.17
747.309	19.17
747.641	19.17
747.973	27.17
748.305	5.17
748.637	12.17
748.969	8.17
749.301	23.17
749.633	12.17
749.965	5.17
750.297	14.17
750.628	25.17
750.96	27.17
751.292	29.17
751.623	17.17
751.955	16.17
752.286	21.17
752.618	11.17
752.949	4.17
753.28	25.17
753.611	7.17
753.943	21.17
754.274	20.17
754.605	18.17
754.936	15.17
755.267	10.17
755.598	23.17
755.929	17.17
756.26	12.17
756.591	135.17
756.921	14.17
757.252	19.17
757.583	14.17
757.913	15.17
758.244	9.17
758.574	20.17
758.905	7.17
759.235	33.17
759.566	7.17
759.896	28.17
760.226	24.17
760.557	11.17
760.887	5.17
761.217	14.17
761.547	29.17
761.877	19.17
762.207	31.17
762.537	18.17
762.867	19.17
763.197	41.17
763.526	12.17
763.856	28.17
764.186	20.17
764.515	9.17
764.845	5.17
765.175	22.17
765.504	17.17
765.833	8.17
766.163	14.17
766.492	12.17
766.821	16.17
767.151	21.17
767.48	11.17
767.809	19.17
768.138	18.17
768.467	16.17
768.796	9.17
769.125	8.17
769.454	7.17
769.783	20.17
770.112	16.17
770.44	22.17
770.769	10.17
771.098	27.17
771.426	17.17
771.755	13.17
772.083	11.17
772.412	15.17
772.74	9.17
773.069	79.17
773.397	27.17
773.725	11.17
774.053	46.17
774.381	29.17
774.71	28.17
775.038	5.17
775.366	13.17
775.693	11.17
776.021	20.17
776.349	13.17
776.677	18.17
777.005	17.17
777.332	18.17
777.66	7.17
777.988	19.17
778.315	24.17
778.643	16.17
778.97	8.17
779.298	9.17
779.625	8.17
779.952	10.17
780.28	21.17
780.607	13.17
780.934	22.17
781.261	22.17
781.588	11.17
781.915	26.17
782.242	15.17
782.569	33.17
782.896	17.17
783.223	14.17
783.549	17.17
783.876	22.17
784.203	6.17
784.529	34.17
784.856	24.17
785.182	21.17
785.509	30.17
785.835	18.17
786.162	13.17
786.488	19.17
786.814	11.17
787.14	21.17
787.466	21.17
787.793	26.17
788.119	12.17
788.445	12.17
788.771	30.17
789.097	14.17
789.422	16.17
789.748	11.17
790.074	11.17
790.4	31.17
790.725	23.17
791.051	76.17
791.376	16.17
791.702	15.17
792.027	15.17
792.353	19.17
792.678	16.17
793.004	28.17
793.329	22.17
793.654	14.17
793.979	16.17
794.304	11.17
794.629	17.17
794.954	13.17
795.279	21.17
795.604	21.17
795.929	15.17
796.254	13.17
796.579	4.17
796.903	71.17
797.228	14.17
797.553	30.17
797.877	11.17
798.202	30.17
798.526	20.17
798.851	11.17
799.175	25.17
799.499	15.17
799.823	10.17
800.148	11.17
800.472	8.17
800.796	6.17
801.12	24.17
801.444	18.17
801.768	13.17
802.092	20.17
802.416	11.17
802.74	21.17
803.063	18.17
803.387	20.17
803.711	96.17
804.034	26.17
804.358	15.17
804.681	21.17
805.005	22.17
805.328	13.17
805.652	4.17
