Data from USB2G147421__23__12-48-49-639.txt Node

Date: Tue Jun 28 12:48:49 UTC 2022
User: yes
Spectrometer: USB2G14742
Trigger mode: 4
Integration Time (sec): 2.000000E0
Scans to average: 1
Electric dark correction enabled: true
Nonlinearity correction enabled: false
Boxcar width: 0
XAxis mode: Wavelengths
Number of Pixels in Spectrum: 2048
>>>>>Begin Spectral Data<<<<<
339.471	-151.28
339.856	-2.28
340.241	-5.28
340.625	-2.28
341.01	-3.28
341.395	32.72
341.779	8.72
342.163	0.72
342.548	15.72
342.932	16.72
343.317	4.72
343.701	13.72
344.085	13.72
344.469	5.72
344.853	6.72
345.238	9.72
345.622	10.72
346.006	24.72
346.39	5.72
346.774	14.72
347.157	16.72
347.541	8.72
347.925	4.72
348.309	2.72
348.693	28.72
349.076	12.72
349.46	26.72
349.843	15.72
350.227	9.72
350.61	68.72
350.994	15.72
351.377	11.72
351.761	28.72
352.144	23.72
352.527	5.72
352.91	8.72
353.294	11.72
353.677	13.72
354.06	21.72
354.443	92.72
354.826	7.72
355.209	4.72
355.592	4.72
355.975	5.72
356.358	18.72
356.74	11.72
357.123	14.72
357.506	9.72
357.889	13.72
358.271	17.72
358.654	8.72
359.036	17.72
359.419	7.72
359.801	11.72
360.184	12.72
360.566	13.72
360.948	25.72
361.331	11.72
361.713	10.72
362.095	16.72
362.477	3.72
362.859	13.72
363.241	17.72
363.623	9.72
364.005	18.72
364.387	21.72
364.769	15.72
365.151	18.72
365.533	32.72
365.915	30.72
366.296	9.72
366.678	57.72
367.06	12.72
367.441	15.72
367.823	28.72
368.204	13.72
368.586	9.72
368.967	17.72
369.348	18.72
369.73	20.72
370.111	9.72
370.492	7.72
370.873	16.72
371.255	40.72
371.636	11.72
372.017	19.72
372.398	17.72
372.779	16.72
373.16	10.72
373.54	7.72
373.921	9.72
374.302	6.72
374.683	18.72
375.064	14.72
375.444	10.72
375.825	13.72
376.205	8.72
376.586	16.72
376.966	13.72
377.347	15.72
377.727	15.72
378.108	13.72
378.488	10.72
378.868	4.72
379.248	17.72
379.629	10.72
380.009	41.72
380.389	14.72
380.769	15.72
381.149	4.72
381.529	31.72
381.909	27.72
382.289	15.72
382.668	89.72
383.048	10.72
383.428	7.72
383.808	7.72
384.187	10.72
384.567	18.72
384.946	7.72
385.326	16.72
385.705	23.72
386.085	4.72
386.464	17.72
386.844	17.72
387.223	11.72
387.602	10.72
387.981	17.72
388.361	9.72
388.74	22.72
389.119	4.72
389.498	18.72
389.877	19.72
390.256	10.72
390.635	20.72
391.013	17.72
391.392	8.72
391.771	51.72
392.15	15.72
392.528	7.72
392.907	13.72
393.286	18.72
393.664	26.72
394.043	9.72
394.421	14.72
394.8	14.72
395.178	10.72
395.556	17.72
395.935	15.72
396.313	13.72
396.691	19.72
397.069	11.72
397.447	4.72
397.825	14.72
398.203	16.72
398.581	21.72
398.959	15.72
399.337	18.72
399.715	72.72
400.093	5.72
400.471	7.72
400.848	7.72
401.226	17.72
401.604	7.72
401.981	13.72
402.359	20.72
402.736	12.72
403.114	41.72
403.491	17.72
403.868	22.72
404.246	55.72
404.623	27.72
405	9.72
405.377	6.72
405.755	20.72
406.132	8.72
406.509	10.72
406.886	19.72
407.263	18.72
407.64	7.72
408.017	16.72
408.393	12.72
408.77	17.72
409.147	13.72
409.524	12.72
409.9	19.72
410.277	18.72
410.653	22.72
411.03	19.72
411.406	7.72
411.783	43.72
412.159	14.72
412.536	14.72
412.912	3.72
413.288	22.72
413.664	7.72
414.04	7.72
414.417	22.72
414.793	14.72
415.169	18.72
415.545	30.72
415.921	19.72
416.297	29.72
416.672	5.72
417.048	7.72
417.424	13.72
417.8	40.72
418.175	11.72
418.551	7.72
418.927	2.72
419.302	73.72
419.678	31.72
420.053	11.72
420.429	21.72
420.804	11.72
421.179	8.72
421.554	10.72
421.93	11.72
422.305	63.72
422.68	19.72
423.055	14.72
423.43	18.72
423.805	10.72
424.18	7.72
424.555	13.72
424.93	9.72
425.305	12.72
425.68	13.72
426.054	20.72
426.429	15.72
426.804	13.72
427.178	17.72
427.553	5.72
427.927	66.72
428.302	15.72
428.676	14.72
429.051	12.72
429.425	10.72
429.799	22.72
430.174	17.72
430.548	13.72
430.922	25.72
431.296	17.72
431.67	26.72
432.044	28.72
432.418	7.72
432.792	13.72
433.166	11.72
433.54	19.72
433.914	23.72
434.287	15.72
434.661	11.72
435.035	17.72
435.408	16.72
435.782	18.72
436.156	20.72
436.529	56.72
436.903	8.72
437.276	6.72
437.649	33.72
438.023	60.72
438.396	15.72
438.769	17.72
439.142	21.72
439.515	25.72
439.889	21.72
440.262	25.72
440.635	27.72
441.008	27.72
441.38	24.72
441.753	25.72
442.126	20.72
442.499	14.72
442.872	76.72
443.244	59.72
443.617	13.72
443.99	26.72
444.362	23.72
444.735	18.72
445.107	23.72
445.48	50.72
445.852	16.72
446.224	17.72
446.597	20.72
446.969	29.72
447.341	34.72
447.713	28.72
448.085	18.72
448.457	26.72
448.829	14.72
449.201	27.72
449.573	29.72
449.945	28.72
450.317	16.72
450.689	25.72
451.061	27.72
451.432	24.72
451.804	34.72
452.176	34.72
452.547	27.72
452.919	27.72
453.29	25.72
453.662	28.72
454.033	24.72
454.404	33.72
454.776	27.72
455.147	18.72
455.518	27.72
455.889	27.72
456.26	17.72
456.631	33.72
457.002	23.72
457.373	20.72
457.744	41.72
458.115	17.72
458.486	33.72
458.857	16.72
459.228	21.72
459.598	14.72
459.969	17.72
460.34	35.72
460.71	15.72
461.081	17.72
461.451	32.72
461.822	27.72
462.192	16.72
462.563	13.72
462.933	20.72
463.303	21.72
463.673	34.72
464.044	21.72
464.414	23.72
464.784	30.72
465.154	20.72
465.524	20.72
465.894	24.72
466.264	19.72
466.634	28.72
467.003	24.72
467.373	19.72
467.743	29.72
468.113	25.72
468.482	27.72
468.852	24.72
469.221	24.72
469.591	21.72
469.96	36.72
470.33	15.72
470.699	71.72
471.068	12.72
471.438	23.72
471.807	30.72
472.176	33.72
472.545	41.72
472.914	9.72
473.283	27.72
473.652	23.72
474.021	38.72
474.39	25.72
474.759	22.72
475.128	19.72
475.497	12.72
475.865	9.72
476.234	22.72
476.603	8.72
476.971	16.72
477.34	11.72
477.708	31.72
478.077	20.72
478.445	16.72
478.814	15.72
479.182	27.72
479.55	23.72
479.919	15.72
480.287	14.72
480.655	32.72
481.023	12.72
481.391	19.72
481.759	24.72
482.127	24.72
482.495	15.72
482.863	20.72
483.231	11.72
483.598	24.72
483.966	24.72
484.334	24.72
484.701	27.72
485.069	16.72
485.437	48.72
485.804	19.72
486.172	20.72
486.539	24.72
486.906	14.72
487.274	29.72
487.641	23.72
488.008	33.72
488.375	35.72
488.743	23.72
489.11	29.72
489.477	10.72
489.844	14.72
490.211	23.72
490.578	23.72
490.945	33.72
491.311	27.72
491.678	28.72
492.045	37.72
492.412	17.72
492.778	20.72
493.145	35.72
493.511	23.72
493.878	26.72
494.244	16.72
494.611	26.72
494.977	17.72
495.344	14.72
495.71	64.72
496.076	18.72
496.442	29.72
496.808	16.72
497.175	36.72
497.541	21.72
497.907	26.72
498.273	42.72
498.638	45.72
499.004	22.72
499.37	24.72
499.736	57.72
500.102	23.72
500.467	39.72
500.833	30.72
501.199	30.72
501.564	31.72
501.93	30.72
502.295	38.72
502.661	28.72
503.026	27.72
503.391	30.72
503.757	35.72
504.122	24.72
504.487	32.72
504.852	45.72
505.217	31.72
505.582	24.72
505.947	32.72
506.312	37.72
506.677	34.72
507.042	35.72
507.407	46.72
507.772	57.72
508.136	54.72
508.501	45.72
508.866	34.72
509.23	50.72
509.595	40.72
509.959	35.72
510.324	28.72
510.688	49.72
511.053	47.72
511.417	93.72
511.781	39.72
512.146	36.72
512.51	55.72
512.874	89.72
513.238	35.72
513.602	35.72
513.966	48.72
514.33	37.72
514.694	34.72
515.058	34.72
515.422	66.72
515.785	61.72
516.149	49.72
516.513	53.72
516.876	43.72
517.24	41.72
517.604	44.72
517.967	55.72
518.331	36.72
518.694	45.72
519.057	52.72
519.421	50.72
519.784	51.72
520.147	64.72
520.51	64.72
520.873	46.72
521.237	49.72
521.6	56.72
521.963	43.72
522.326	52.72
522.688	40.72
523.051	47.72
523.414	52.72
523.777	124.72
524.14	46.72
524.502	59.72
524.865	54.72
525.228	54.72
525.59	57.72
525.953	69.72
526.315	54.72
526.677	54.72
527.04	91.72
527.402	57.72
527.764	57.72
528.127	53.72
528.489	58.72
528.851	58.72
529.213	51.72
529.575	50.72
529.937	78.72
530.299	50.72
530.661	60.72
531.023	64.72
531.384	61.72
531.746	55.72
532.108	57.72
532.47	54.72
532.831	61.72
533.193	53.72
533.554	67.72
533.916	54.72
534.277	72.72
534.639	55.72
535	58.72
535.361	66.72
535.723	70.72
536.084	70.72
536.445	82.72
536.806	126.72
537.167	91.72
537.528	64.72
537.889	77.72
538.25	67.72
538.611	72.72
538.972	72.72
539.333	74.72
539.693	89.72
540.054	259.72
540.415	62.72
540.775	64.72
541.136	68.72
541.496	60.72
541.857	73.72
542.217	67.72
542.578	76.72
542.938	94.72
543.298	80.72
543.658	73.72
544.019	77.72
544.379	73.72
544.739	77.72
545.099	66.72
545.459	73.72
545.819	79.72
546.179	68.72
546.539	90.72
546.899	70.72
547.258	90.72
547.618	80.72
547.978	87.72
548.337	89.72
548.697	76.72
549.056	100.72
549.416	85.72
549.775	79.72
550.135	84.72
550.494	77.72
550.854	94.72
551.213	87.72
551.572	86.72
551.931	80.72
552.29	92.72
552.649	93.72
553.008	83.72
553.367	122.72
553.726	101.72
554.085	88.72
554.444	188.72
554.803	80.72
555.162	93.72
555.52	86.72
555.879	98.72
556.238	91.72
556.596	86.72
556.955	98.72
557.313	98.72
557.672	100.72
558.03	78.72
558.388	90.72
558.747	107.72
559.105	90.72
559.463	93.72
559.821	82.72
560.179	94.72
560.537	86.72
560.896	94.72
561.253	83.72
561.611	85.72
561.969	96.72
562.327	86.72
562.685	99.72
563.043	90.72
563.4	91.72
563.758	97.72
564.116	101.72
564.473	92.72
564.831	95.72
565.188	89.72
565.546	125.72
565.903	104.72
566.26	103.72
566.617	105.72
566.975	110.72
567.332	96.72
567.689	93.72
568.046	103.72
568.403	112.72
568.76	99.72
569.117	104.72
569.474	110.72
569.831	105.72
570.188	102.72
570.544	103.72
570.901	99.72
571.258	126.72
571.614	97.72
571.971	113.72
572.328	101.72
572.684	101.72
573.04	119.72
573.397	100.72
573.753	116.72
574.109	104.72
574.466	113.72
574.822	98.72
575.178	114.72
575.534	109.72
575.89	120.72
576.246	111.72
576.602	108.72
576.958	109.72
577.314	108.72
577.67	104.72
578.026	116.72
578.381	117.72
578.737	106.72
579.093	117.72
579.448	113.72
579.804	134.72
580.159	120.72
580.515	103.72
580.87	117.72
581.226	110.72
581.581	123.72
581.936	120.72
582.291	110.72
582.647	112.72
583.002	131.72
583.357	107.72
583.712	113.72
584.067	105.72
584.422	110.72
584.777	115.72
585.131	108.72
585.486	105.72
585.841	108.72
586.196	132.72
586.55	107.72
586.905	121.72
587.26	112.72
587.614	103.72
587.969	137.72
588.323	117.72
588.677	124.72
589.032	115.72
589.386	122.72
589.74	136.72
590.094	122.72
590.449	129.72
590.803	149.72
591.157	108.72
591.511	138.72
591.865	118.72
592.219	131.72
592.573	100.72
592.926	109.72
593.28	107.72
593.634	136.72
593.988	106.72
594.341	99.72
594.695	112.72
595.048	104.72
595.402	102.72
595.755	110.72
596.109	123.72
596.462	129.72
596.815	112.72
597.169	129.72
597.522	114.72
597.875	154.72
598.228	115.72
598.581	106.72
598.934	137.72
599.287	93.72
599.64	111.72
599.993	97.72
600.346	108.72
600.698	102.72
601.051	100.72
601.404	108.72
601.757	101.72
602.109	115.72
602.462	113.72
602.814	92.72
603.167	108.72
603.519	104.72
603.871	113.72
604.224	114.72
604.576	94.72
604.928	126.72
605.28	97.72
605.633	101.72
605.985	105.72
606.337	96.72
606.689	98.72
607.041	119.72
607.392	95.72
607.744	105.72
608.096	93.72
608.448	91.72
608.8	97.72
609.151	97.72
609.503	84.72
609.854	91.72
610.206	124.72
610.557	100.72
610.909	87.72
611.26	109.72
611.612	96.72
611.963	87.72
612.314	112.72
612.665	95.72
613.016	87.72
613.367	89.72
613.719	106.72
614.07	87.72
614.42	82.72
614.771	80.72
615.122	100.72
615.473	91.72
615.824	86.72
616.174	99.72
616.525	87.72
616.876	74.72
617.226	83.72
617.577	82.72
617.927	85.72
618.278	74.72
618.628	146.72
618.979	92.72
619.329	83.72
619.679	100.72
620.029	92.72
620.379	78.72
620.729	98.72
621.08	78.72
621.43	100.72
621.779	108.72
622.129	84.72
622.479	84.72
622.829	81.72
623.179	74.72
623.529	67.72
623.878	82.72
624.228	74.72
624.577	67.72
624.927	72.72
625.276	70.72
625.626	82.72
625.975	83.72
626.325	72.72
626.674	118.72
627.023	66.72
627.372	78.72
627.722	92.72
628.071	90.72
628.42	74.72
628.769	118.72
629.118	75.72
629.467	74.72
629.815	72.72
630.164	59.72
630.513	81.72
630.862	115.72
631.21	82.72
631.559	69.72
631.908	68.72
632.256	62.72
632.605	55.72
632.953	67.72
633.302	64.72
633.65	83.72
633.998	130.72
634.346	77.72
634.695	57.72
635.043	58.72
635.391	81.72
635.739	53.72
636.087	65.72
636.435	77.72
636.783	68.72
637.131	49.72
637.479	66.72
637.826	61.72
638.174	54.72
638.522	57.72
638.869	96.72
639.217	55.72
639.564	62.72
639.912	50.72
640.259	59.72
640.607	60.72
640.954	66.72
641.301	66.72
641.649	49.72
641.996	58.72
642.343	62.72
642.69	61.72
643.037	60.72
643.384	74.72
643.731	53.72
644.078	85.72
644.425	44.72
644.772	50.72
645.119	45.72
645.465	50.72
645.812	42.72
646.159	65.72
646.505	59.72
646.852	64.72
647.198	33.72
647.545	54.72
647.891	66.72
648.237	54.72
648.584	56.72
648.93	43.72
649.276	57.72
649.622	65.72
649.969	73.72
650.315	55.72
650.661	53.72
651.007	51.72
651.352	63.72
651.698	39.72
652.044	48.72
652.39	54.72
652.736	46.72
653.081	42.72
653.427	48.72
653.773	47.72
654.118	46.72
654.464	36.72
654.809	50.72
655.154	36.72
655.5	45.72
655.845	35.72
656.19	41.72
656.536	34.72
656.881	47.72
657.226	36.72
657.571	100.72
657.916	37.72
658.261	40.72
658.606	38.72
658.951	23.72
659.295	32.72
659.64	32.72
659.985	34.72
660.33	40.72
660.674	36.72
661.019	42.72
661.363	36.72
661.708	37.72
662.052	24.72
662.397	30.72
662.741	28.72
663.085	28.72
663.429	39.72
663.774	75.72
664.118	27.72
664.462	26.72
664.806	27.72
665.15	48.72
665.494	25.72
665.838	27.72
666.182	34.72
666.526	37.72
666.869	30.72
667.213	25.72
667.557	35.72
667.9	43.72
668.244	32.72
668.587	38.72
668.931	28.72
669.274	33.72
669.618	27.72
669.961	32.72
670.304	27.72
670.648	28.72
670.991	21.72
671.334	12.72
671.677	22.72
672.02	22.72
672.363	21.72
672.706	31.72
673.049	38.72
673.392	23.72
673.735	25.72
674.077	21.72
674.42	25.72
674.763	20.72
675.105	28.72
675.448	36.72
675.79	22.72
676.133	28.72
676.475	23.72
676.818	22.72
677.16	17.72
677.502	35.72
677.844	44.72
678.187	18.72
678.529	52.72
678.871	35.72
679.213	30.72
679.555	36.72
679.897	28.72
680.239	22.72
680.58	24.72
680.922	29.72
681.264	34.72
681.606	26.72
681.947	22.72
682.289	30.72
682.631	55.72
682.972	20.72
683.313	25.72
683.655	28.72
683.996	20.72
684.338	24.72
684.679	19.72
685.02	14.72
685.361	29.72
685.702	28.72
686.043	33.72
686.384	24.72
686.725	21.72
687.066	31.72
687.407	23.72
687.748	22.72
688.089	40.72
688.43	21.72
688.77	55.72
689.111	27.72
689.451	25.72
689.792	30.72
690.132	28.72
690.473	24.72
690.813	20.72
691.154	27.72
691.494	20.72
691.834	25.72
692.174	25.72
692.515	16.72
692.855	19.72
693.195	30.72
693.535	28.72
693.875	22.72
694.215	25.72
694.554	38.72
694.894	24.72
695.234	35.72
695.574	28.72
695.913	32.72
696.253	23.72
696.593	27.72
696.932	28.72
697.272	22.72
697.611	16.72
697.95	35.72
698.29	21.72
698.629	28.72
698.968	14.72
699.307	15.72
699.647	27.72
699.986	39.72
700.325	26.72
700.664	13.72
701.003	17.72
701.341	20.72
701.68	10.72
702.019	11.72
702.358	17.72
702.697	24.72
703.035	31.72
703.374	19.72
703.712	34.72
704.051	15.72
704.389	31.72
704.728	19.72
705.066	15.72
705.404	26.72
705.743	23.72
706.081	21.72
706.419	12.72
706.757	22.72
707.095	37.72
707.433	24.72
707.771	24.72
708.109	11.72
708.447	26.72
708.785	24.72
709.123	27.72
709.46	20.72
709.798	19.72
710.136	35.72
710.473	26.72
710.811	30.72
711.148	33.72
711.486	25.72
711.823	16.72
712.16	23.72
712.498	22.72
712.835	29.72
713.172	18.72
713.509	32.72
713.846	80.72
714.183	38.72
714.52	19.72
714.857	12.72
715.194	19.72
715.531	22.72
715.868	35.72
716.205	14.72
716.541	25.72
716.878	34.72
717.215	21.72
717.551	26.72
717.888	21.72
718.224	74.72
718.561	24.72
718.897	21.72
719.233	16.72
719.57	17.72
719.906	17.72
720.242	11.72
720.578	15.72
720.914	13.72
721.25	19.72
721.586	8.72
721.922	11.72
722.258	33.72
722.594	14.72
722.929	16.72
723.265	19.72
723.601	22.72
723.937	35.72
724.272	18.72
724.608	22.72
724.943	15.72
725.279	6.72
725.614	12.72
725.949	22.72
726.285	16.72
726.62	41.72
726.955	8.72
727.29	15.72
727.625	13.72
727.96	21.72
728.295	36.72
728.63	23.72
728.965	5.72
729.3	17.72
729.635	61.72
729.97	15.72
730.304	12.72
730.639	19.72
730.974	6.72
731.308	29.72
731.643	9.72
731.977	23.72
732.311	27.72
732.646	12.72
732.98	15.72
733.314	5.72
733.649	85.72
733.983	20.72
734.317	45.72
734.651	13.72
734.985	18.72
735.319	12.72
735.653	19.72
735.987	24.72
736.321	30.72
736.654	6.72
736.988	23.72
737.322	33.72
737.655	24.72
737.989	21.72
738.322	21.72
738.656	12.72
738.989	14.72
739.323	20.72
739.656	20.72
739.989	29.72
740.323	12.72
740.656	12.72
740.989	12.72
741.322	17.72
741.655	21.72
741.988	32.72
742.321	28.72
742.654	18.72
742.987	12.72
743.319	15.72
743.652	25.72
743.985	26.72
744.317	12.72
744.65	15.72
744.983	22.72
745.315	12.72
745.648	13.72
745.98	13.72
746.312	13.72
746.645	17.72
746.977	32.72
747.309	21.72
747.641	18.72
747.973	26.72
748.305	8.72
748.637	8.72
748.969	11.72
749.301	28.72
749.633	13.72
749.965	9.72
750.297	19.72
750.628	18.72
750.96	26.72
751.292	29.72
751.623	18.72
751.955	18.72
752.286	24.72
752.618	14.72
752.949	8.72
753.28	25.72
753.611	16.72
753.943	15.72
754.274	19.72
754.605	15.72
754.936	16.72
755.267	9.72
755.598	29.72
755.929	14.72
756.26	16.72
756.591	143.72
756.921	16.72
757.252	15.72
757.583	16.72
757.913	17.72
758.244	16.72
758.574	15.72
758.905	14.72
759.235	21.72
759.566	7.72
759.896	22.72
760.226	20.72
760.557	5.72
760.887	7.72
761.217	13.72
761.547	30.72
761.877	13.72
762.207	28.72
762.537	17.72
762.867	17.72
763.197	42.72
763.526	17.72
763.856	26.72
764.186	16.72
764.515	9.72
764.845	2.72
765.175	22.72
765.504	18.72
765.833	8.72
766.163	17.72
766.492	15.72
766.821	17.72
767.151	18.72
767.48	13.72
767.809	15.72
768.138	18.72
768.467	8.72
768.796	18.72
769.125	11.72
769.454	7.72
769.783	17.72
770.112	16.72
770.44	18.72
770.769	8.72
771.098	28.72
771.426	16.72
771.755	14.72
772.083	8.72
772.412	22.72
772.74	9.72
773.069	83.72
773.397	21.72
773.725	3.72
774.053	48.72
774.381	26.72
774.71	28.72
775.038	8.72
775.366	5.72
775.693	6.72
776.021	17.72
776.349	12.72
776.677	14.72
777.005	9.72
777.332	17.72
777.66	7.72
777.988	13.72
778.315	24.72
778.643	17.72
778.97	8.72
779.298	9.72
779.625	12.72
779.952	18.72
780.28	22.72
780.607	13.72
780.934	23.72
781.261	24.72
781.588	8.72
781.915	26.72
782.242	20.72
782.569	36.72
782.896	21.72
783.223	12.72
783.549	28.72
783.876	20.72
784.203	9.72
784.529	39.72
784.856	23.72
785.182	23.72
785.509	26.72
785.835	12.72
786.162	12.72
786.488	11.72
786.814	8.72
787.14	20.72
787.466	20.72
787.793	23.72
788.119	8.72
788.445	12.72
788.771	24.72
789.097	14.72
789.422	13.72
789.748	10.72
790.074	12.72
790.4	29.72
790.725	19.72
791.051	84.72
791.376	14.72
791.702	20.72
792.027	17.72
792.353	9.72
792.678	18.72
793.004	25.72
793.329	14.72
793.654	11.72
793.979	16.72
794.304	14.72
794.629	22.72
794.954	14.72
795.279	15.72
795.604	20.72
795.929	12.72
796.254	9.72
796.579	3.72
796.903	70.72
797.228	14.72
797.553	34.72
797.877	8.72
798.202	26.72
798.526	14.72
798.851	6.72
799.175	21.72
799.499	17.72
799.823	12.72
800.148	14.72
800.472	8.72
800.796	11.72
801.12	23.72
801.444	12.72
801.768	10.72
802.092	10.72
802.416	14.72
802.74	24.72
803.063	18.72
803.387	20.72
803.711	91.72
804.034	20.72
804.358	10.72
804.681	20.72
805.005	19.72
805.328	15.72
805.652	6.72
