Data from USB2G147421__100__13-40-13-507.txt Node

Date: Tue Jun 28 13:40:13 UTC 2022
User: yes
Spectrometer: USB2G14742
Trigger mode: 4
Integration Time (sec): 2.000000E0
Scans to average: 1
Electric dark correction enabled: true
Nonlinearity correction enabled: false
Boxcar width: 0
XAxis mode: Wavelengths
Number of Pixels in Spectrum: 2048
>>>>>Begin Spectral Data<<<<<
339.471	-152.56
339.856	-8.56
340.241	-5.56
340.625	-7.56
341.01	-0.56
341.395	33.44
341.779	8.44
342.163	8.44
342.548	15.44
342.932	15.44
343.317	7.44
343.701	10.44
344.085	12.44
344.469	11.44
344.853	6.44
345.238	6.44
345.622	13.44
346.006	25.44
346.39	6.44
346.774	15.44
347.157	10.44
347.541	10.44
347.925	1.44
348.309	13.44
348.693	24.44
349.076	7.44
349.46	23.44
349.843	21.44
350.227	12.44
350.61	63.44
350.994	21.44
351.377	14.44
351.761	37.44
352.144	25.44
352.527	7.44
352.91	10.44
353.294	14.44
353.677	19.44
354.06	18.44
354.443	92.44
354.826	2.44
355.209	6.44
355.592	5.44
355.975	11.44
356.358	19.44
356.74	22.44
357.123	12.44
357.506	10.44
357.889	8.44
358.271	21.44
358.654	5.44
359.036	17.44
359.419	8.44
359.801	14.44
360.184	14.44
360.566	17.44
360.948	27.44
361.331	12.44
361.713	1.44
362.095	18.44
362.477	9.44
362.859	10.44
363.241	19.44
363.623	11.44
364.005	22.44
364.387	24.44
364.769	7.44
365.151	12.44
365.533	36.44
365.915	25.44
366.296	11.44
366.678	65.44
367.06	9.44
367.441	24.44
367.823	27.44
368.204	16.44
368.586	10.44
368.967	15.44
369.348	20.44
369.73	16.44
370.111	8.44
370.492	2.44
370.873	16.44
371.255	39.44
371.636	9.44
372.017	18.44
372.398	22.44
372.779	18.44
373.16	18.44
373.54	7.44
373.921	10.44
374.302	5.44
374.683	17.44
375.064	13.44
375.444	12.44
375.825	12.44
376.205	11.44
376.586	22.44
376.966	14.44
377.347	17.44
377.727	7.44
378.108	9.44
378.488	9.44
378.868	7.44
379.248	14.44
379.629	11.44
380.009	39.44
380.389	10.44
380.769	17.44
381.149	13.44
381.529	27.44
381.909	30.44
382.289	15.44
382.668	93.44
383.048	16.44
383.428	11.44
383.808	11.44
384.187	13.44
384.567	20.44
384.946	4.44
385.326	18.44
385.705	17.44
386.085	11.44
386.464	22.44
386.844	21.44
387.223	11.44
387.602	13.44
387.981	18.44
388.361	12.44
388.74	25.44
389.119	2.44
389.498	12.44
389.877	13.44
390.256	11.44
390.635	17.44
391.013	14.44
391.392	5.44
391.771	52.44
392.15	16.44
392.528	13.44
392.907	10.44
393.286	17.44
393.664	24.44
394.043	10.44
394.421	18.44
394.8	17.44
395.178	9.44
395.556	21.44
395.935	14.44
396.313	9.44
396.691	21.44
397.069	11.44
397.447	11.44
397.825	13.44
398.203	14.44
398.581	23.44
398.959	13.44
399.337	15.44
399.715	67.44
400.093	10.44
400.471	11.44
400.848	9.44
401.226	12.44
401.604	11.44
401.981	10.44
402.359	19.44
402.736	12.44
403.114	49.44
403.491	21.44
403.868	24.44
404.246	59.44
404.623	23.44
405	15.44
405.377	7.44
405.755	18.44
406.132	6.44
406.509	7.44
406.886	18.44
407.263	21.44
407.64	7.44
408.017	17.44
408.393	19.44
408.77	19.44
409.147	10.44
409.524	15.44
409.9	18.44
410.277	19.44
410.653	17.44
411.03	19.44
411.406	8.44
411.783	37.44
412.159	18.44
412.536	25.44
412.912	9.44
413.288	24.44
413.664	8.44
414.04	10.44
414.417	25.44
414.793	14.44
415.169	9.44
415.545	24.44
415.921	15.44
416.297	35.44
416.672	10.44
417.048	17.44
417.424	15.44
417.8	40.44
418.175	15.44
418.551	10.44
418.927	13.44
419.302	74.44
419.678	25.44
420.053	15.44
420.429	20.44
420.804	14.44
421.179	16.44
421.554	14.44
421.93	18.44
422.305	77.44
422.68	25.44
423.055	20.44
423.43	23.44
423.805	21.44
424.18	12.44
424.555	22.44
424.93	21.44
425.305	18.44
425.68	23.44
426.054	27.44
426.429	35.44
426.804	33.44
427.178	36.44
427.553	28.44
427.927	85.44
428.302	30.44
428.676	32.44
429.051	34.44
429.425	29.44
429.799	51.44
430.174	41.44
430.548	38.44
430.922	64.44
431.296	39.44
431.67	60.44
432.044	56.44
432.418	51.44
432.792	54.44
433.166	52.44
433.54	64.44
433.914	72.44
434.287	67.44
434.661	59.44
435.035	63.44
435.408	58.44
435.782	79.44
436.156	85.44
436.529	116.44
436.903	76.44
437.276	85.44
437.649	99.44
438.023	126.44
438.396	81.44
438.769	92.44
439.142	92.44
439.515	105.44
439.889	104.44
440.262	111.44
440.635	112.44
441.008	106.44
441.38	102.44
441.753	111.44
442.126	98.44
442.499	107.44
442.872	168.44
443.244	150.44
443.617	113.44
443.99	126.44
444.362	117.44
444.735	107.44
445.107	117.44
445.48	156.44
445.852	127.44
446.224	140.44
446.597	133.44
446.969	149.44
447.341	159.44
447.713	160.44
448.085	154.44
448.457	161.44
448.829	171.44
449.201	174.44
449.573	169.44
449.945	195.44
450.317	186.44
450.689	211.44
451.061	210.44
451.432	213.44
451.804	215.44
452.176	233.44
452.547	216.44
452.919	242.44
453.29	238.44
453.662	224.44
454.033	235.44
454.404	254.44
454.776	245.44
455.147	222.44
455.518	220.44
455.889	223.44
456.26	217.44
456.631	218.44
457.002	207.44
457.373	220.44
457.744	218.44
458.115	196.44
458.486	204.44
458.857	172.44
459.228	194.44
459.598	175.44
459.969	154.44
460.34	171.44
460.71	150.44
461.081	153.44
461.451	161.44
461.822	156.44
462.192	139.44
462.563	131.44
462.933	136.44
463.303	124.44
463.673	130.44
464.044	120.44
464.414	117.44
464.784	118.44
465.154	113.44
465.524	122.44
465.894	112.44
466.264	112.44
466.634	113.44
467.003	106.44
467.373	108.44
467.743	124.44
468.113	125.44
468.482	112.44
468.852	114.44
469.221	117.44
469.591	109.44
469.96	114.44
470.33	100.44
470.699	163.44
471.068	95.44
471.438	97.44
471.807	107.44
472.176	102.44
472.545	113.44
472.914	93.44
473.283	98.44
473.652	95.44
474.021	106.44
474.39	90.44
474.759	96.44
475.128	81.44
475.497	82.44
475.865	73.44
476.234	96.44
476.603	77.44
476.971	75.44
477.34	78.44
477.708	92.44
478.077	80.44
478.445	79.44
478.814	72.44
479.182	86.44
479.55	84.44
479.919	77.44
480.287	80.44
480.655	102.44
481.023	73.44
481.391	80.44
481.759	80.44
482.127	86.44
482.495	72.44
482.863	81.44
483.231	66.44
483.598	81.44
483.966	98.44
484.334	91.44
484.701	94.44
485.069	95.44
485.437	113.44
485.804	88.44
486.172	98.44
486.539	91.44
486.906	97.44
487.274	104.44
487.641	103.44
488.008	113.44
488.375	126.44
488.743	110.44
489.11	112.44
489.477	101.44
489.844	109.44
490.211	111.44
490.578	114.44
490.945	121.44
491.311	121.44
491.678	121.44
492.045	143.44
492.412	122.44
492.778	130.44
493.145	147.44
493.511	127.44
493.878	127.44
494.244	136.44
494.611	144.44
494.977	147.44
495.344	143.44
495.71	197.44
496.076	151.44
496.442	172.44
496.808	154.44
497.175	169.44
497.541	159.44
497.907	171.44
498.273	199.44
498.638	203.44
499.004	179.44
499.37	188.44
499.736	228.44
500.102	189.44
500.467	206.44
500.833	213.44
501.199	217.44
501.564	211.44
501.93	210.44
502.295	225.44
502.661	231.44
503.026	228.44
503.391	226.44
503.757	246.44
504.122	227.44
504.487	241.44
504.852	265.44
505.217	259.44
505.582	249.44
505.947	272.44
506.312	276.44
506.677	269.44
507.042	264.44
507.407	285.44
507.772	301.44
508.136	298.44
508.501	310.44
508.866	296.44
509.23	314.44
509.595	307.44
509.959	319.44
510.324	303.44
510.688	333.44
511.053	335.44
511.417	377.44
511.781	330.44
512.146	319.44
512.51	342.44
512.874	381.44
513.238	332.44
513.602	340.44
513.966	351.44
514.33	367.44
514.694	359.44
515.058	357.44
515.422	375.44
515.785	383.44
516.149	377.44
516.513	388.44
516.876	370.44
517.24	382.44
517.604	365.44
517.967	389.44
518.331	383.44
518.694	387.44
519.057	397.44
519.421	389.44
519.784	407.44
520.147	442.44
520.51	432.44
520.873	407.44
521.237	414.44
521.6	422.44
521.963	415.44
522.326	431.44
522.688	410.44
523.051	423.44
523.414	446.44
523.777	508.44
524.14	438.44
524.502	445.44
524.865	435.44
525.228	449.44
525.59	439.44
525.953	456.44
526.315	463.44
526.677	460.44
527.04	500.44
527.402	465.44
527.764	467.44
528.127	469.44
528.489	476.44
528.851	477.44
529.213	469.44
529.575	484.44
529.937	475.44
530.299	486.44
530.661	496.44
531.023	491.44
531.384	478.44
531.746	490.44
532.108	489.44
532.47	509.44
532.831	510.44
533.193	495.44
533.554	524.44
533.916	513.44
534.277	521.44
534.639	507.44
535	526.44
535.361	530.44
535.723	536.44
536.084	512.44
536.445	539.44
536.806	608.44
537.167	546.44
537.528	544.44
537.889	559.44
538.25	548.44
538.611	532.44
538.972	550.44
539.333	539.44
539.693	563.44
540.054	584.44
540.415	558.44
540.775	545.44
541.136	551.44
541.496	558.44
541.857	565.44
542.217	556.44
542.578	563.44
542.938	590.44
543.298	550.44
543.658	573.44
544.019	571.44
544.379	572.44
544.739	591.44
545.099	588.44
545.459	589.44
545.819	585.44
546.179	567.44
546.539	623.44
546.899	579.44
547.258	610.44
547.618	591.44
547.978	600.44
548.337	596.44
548.697	600.44
549.056	610.44
549.416	602.44
549.775	592.44
550.135	606.44
550.494	608.44
550.854	628.44
551.213	617.44
551.572	610.44
551.931	621.44
552.29	603.44
552.649	620.44
553.008	608.44
553.367	664.44
553.726	657.44
554.085	618.44
554.444	716.44
554.803	628.44
555.162	640.44
555.52	646.44
555.879	644.44
556.238	632.44
556.596	614.44
556.955	631.44
557.313	666.44
557.672	654.44
558.03	653.44
558.388	641.44
558.747	655.44
559.105	642.44
559.463	654.44
559.821	657.44
560.179	636.44
560.537	648.44
560.896	659.44
561.253	649.44
561.611	655.44
561.969	667.44
562.327	669.44
562.685	660.44
563.043	670.44
563.4	669.44
563.758	669.44
564.116	673.44
564.473	661.44
564.831	671.44
565.188	698.44
565.546	723.44
565.903	693.44
566.26	685.44
566.617	698.44
566.975	694.44
567.332	691.44
567.689	694.44
568.046	697.44
568.403	733.44
568.76	692.44
569.117	712.44
569.474	715.44
569.831	690.44
570.188	705.44
570.544	696.44
570.901	690.44
571.258	732.44
571.614	703.44
571.971	723.44
572.328	706.44
572.684	700.44
573.04	747.44
573.397	707.44
573.753	749.44
574.109	744.44
574.466	727.44
574.822	726.44
575.178	728.44
575.534	726.44
575.89	753.44
576.246	756.44
576.602	739.44
576.958	744.44
577.314	747.44
577.67	730.44
578.026	751.44
578.381	759.44
578.737	744.44
579.093	757.44
579.448	757.44
579.804	782.44
580.159	751.44
580.515	740.44
580.87	749.44
581.226	755.44
581.581	762.44
581.936	763.44
582.291	750.44
582.647	733.44
583.002	763.44
583.357	759.44
583.712	753.44
584.067	746.44
584.422	750.44
584.777	743.44
585.131	762.44
585.486	730.44
585.841	753.44
586.196	788.44
586.55	745.44
586.905	744.44
587.26	730.44
587.614	731.44
587.969	773.44
588.323	738.44
588.677	759.44
589.032	752.44
589.386	745.44
589.74	751.44
590.094	758.44
590.449	747.44
590.803	795.44
591.157	754.44
591.511	766.44
591.865	749.44
592.219	753.44
592.573	711.44
592.926	729.44
593.28	713.44
593.634	761.44
593.988	727.44
594.341	711.44
594.695	729.44
595.048	705.44
595.402	693.44
595.755	699.44
596.109	731.44
596.462	728.44
596.815	704.44
597.169	734.44
597.522	693.44
597.875	732.44
598.228	708.44
598.581	701.44
598.934	728.44
599.287	685.44
599.64	691.44
599.993	722.44
600.346	690.44
600.698	683.44
601.051	667.44
601.404	674.44
601.757	681.44
602.109	695.44
602.462	686.44
602.814	654.44
603.167	679.44
603.519	670.44
603.871	686.44
604.224	670.44
604.576	653.44
604.928	679.44
605.28	667.44
605.633	661.44
605.985	672.44
606.337	658.44
606.689	650.44
607.041	658.44
607.392	648.44
607.744	658.44
608.096	638.44
608.448	644.44
608.8	628.44
609.151	620.44
609.503	624.44
609.854	632.44
610.206	658.44
610.557	633.44
610.909	620.44
611.26	634.44
611.612	624.44
611.963	607.44
612.314	610.44
612.665	606.44
613.016	612.44
613.367	617.44
613.719	614.44
614.07	601.44
614.42	601.44
614.771	590.44
615.122	587.44
615.473	597.44
615.824	585.44
616.174	591.44
616.525	574.44
616.876	574.44
617.226	570.44
617.577	566.44
617.927	573.44
618.278	559.44
618.628	635.44
618.979	566.44
619.329	548.44
619.679	569.44
620.029	566.44
620.379	536.44
620.729	568.44
621.08	545.44
621.43	558.44
621.779	564.44
622.129	541.44
622.479	530.44
622.829	521.44
623.179	553.44
623.529	511.44
623.878	527.44
624.228	518.44
624.577	513.44
624.927	509.44
625.276	508.44
625.626	513.44
625.975	529.44
626.325	508.44
626.674	535.44
627.023	491.44
627.372	508.44
627.722	518.44
628.071	504.44
628.42	499.44
628.769	525.44
629.118	493.44
629.467	485.44
629.815	480.44
630.164	462.44
630.513	482.44
630.862	507.44
631.21	468.44
631.559	454.44
631.908	450.44
632.256	456.44
632.605	442.44
632.953	450.44
633.302	441.44
633.65	454.44
633.998	500.44
634.346	450.44
634.695	423.44
635.043	427.44
635.391	456.44
635.739	409.44
636.087	419.44
636.435	419.44
636.783	421.44
637.131	399.44
637.479	414.44
637.826	397.44
638.174	399.44
638.522	386.44
638.869	439.44
639.217	385.44
639.564	388.44
639.912	384.44
640.259	375.44
640.607	377.44
640.954	371.44
641.301	385.44
641.649	374.44
641.996	354.44
642.343	373.44
642.69	363.44
643.037	361.44
643.384	384.44
643.731	350.44
644.078	375.44
644.425	343.44
644.772	332.44
645.119	327.44
645.465	317.44
645.812	338.44
646.159	328.44
646.505	317.44
646.852	341.44
647.198	311.44
647.545	310.44
647.891	323.44
648.237	317.44
648.584	312.44
648.93	297.44
649.276	292.44
649.622	316.44
649.969	302.44
650.315	310.44
650.661	301.44
651.007	282.44
651.352	299.44
651.698	278.44
652.044	274.44
652.39	283.44
652.736	285.44
653.081	275.44
653.427	262.44
653.773	277.44
654.118	260.44
654.464	260.44
654.809	267.44
655.154	260.44
655.5	256.44
655.845	242.44
656.19	247.44
656.536	236.44
656.881	244.44
657.226	227.44
657.571	296.44
657.916	239.44
658.261	221.44
658.606	240.44
658.951	218.44
659.295	223.44
659.64	205.44
659.985	221.44
660.33	216.44
660.674	211.44
661.019	217.44
661.363	221.44
661.708	214.44
662.052	193.44
662.397	203.44
662.741	202.44
663.085	209.44
663.429	208.44
663.774	249.44
664.118	189.44
664.462	190.44
664.806	186.44
665.15	207.44
665.494	193.44
665.838	188.44
666.182	184.44
666.526	196.44
666.869	173.44
667.213	179.44
667.557	180.44
667.9	185.44
668.244	179.44
668.587	183.44
668.931	169.44
669.274	167.44
669.618	159.44
669.961	169.44
670.304	162.44
670.648	165.44
670.991	164.44
671.334	153.44
671.677	154.44
672.02	157.44
672.363	148.44
672.706	156.44
673.049	159.44
673.392	150.44
673.735	143.44
674.077	147.44
674.42	152.44
674.763	142.44
675.105	142.44
675.448	156.44
675.79	139.44
676.133	141.44
676.475	135.44
676.818	134.44
677.16	131.44
677.502	148.44
677.844	148.44
678.187	126.44
678.529	158.44
678.871	137.44
679.213	133.44
679.555	136.44
679.897	131.44
680.239	134.44
680.58	122.44
680.922	137.44
681.264	134.44
681.606	125.44
681.947	114.44
682.289	128.44
682.631	154.44
682.972	112.44
683.313	113.44
683.655	125.44
683.996	115.44
684.338	108.44
684.679	105.44
685.02	103.44
685.361	110.44
685.702	112.44
686.043	118.44
686.384	106.44
686.725	100.44
687.066	120.44
687.407	96.44
687.748	103.44
688.089	118.44
688.43	102.44
688.77	135.44
689.111	103.44
689.451	104.44
689.792	106.44
690.132	97.44
690.473	93.44
690.813	88.44
691.154	95.44
691.494	93.44
691.834	93.44
692.174	85.44
692.515	89.44
692.855	88.44
693.195	91.44
693.535	94.44
693.875	80.44
694.215	82.44
694.554	93.44
694.894	87.44
695.234	83.44
695.574	78.44
695.913	83.44
696.253	82.44
696.593	88.44
696.932	85.44
697.272	74.44
697.611	76.44
697.95	85.44
698.29	68.44
698.629	76.44
698.968	66.44
699.307	65.44
699.647	79.44
699.986	82.44
700.325	71.44
700.664	57.44
701.003	63.44
701.341	65.44
701.68	55.44
702.019	57.44
702.358	66.44
702.697	65.44
703.035	72.44
703.374	63.44
703.712	71.44
704.051	57.44
704.389	73.44
704.728	58.44
705.066	60.44
705.404	65.44
705.743	62.44
706.081	56.44
706.419	52.44
706.757	63.44
707.095	79.44
707.433	61.44
707.771	60.44
708.109	49.44
708.447	63.44
708.785	71.44
709.123	65.44
709.46	49.44
709.798	47.44
710.136	68.44
710.473	63.44
710.811	62.44
711.148	58.44
711.486	55.44
711.823	48.44
712.16	53.44
712.498	49.44
712.835	57.44
713.172	48.44
713.509	59.44
713.846	113.44
714.183	66.44
714.52	44.44
714.857	43.44
715.194	46.44
715.531	45.44
715.868	55.44
716.205	45.44
716.541	51.44
716.878	54.44
717.215	50.44
717.551	43.44
717.888	43.44
718.224	103.44
718.561	44.44
718.897	44.44
719.233	29.44
719.57	45.44
719.906	27.44
720.242	34.44
720.578	31.44
720.914	37.44
721.25	39.44
721.586	28.44
721.922	25.44
722.258	48.44
722.594	32.44
722.929	41.44
723.265	43.44
723.601	47.44
723.937	49.44
724.272	31.44
724.608	34.44
724.943	30.44
725.279	23.44
725.614	25.44
725.949	41.44
726.285	38.44
726.62	61.44
726.955	22.44
727.29	25.44
727.625	26.44
727.96	37.44
728.295	47.44
728.63	39.44
728.965	27.44
729.3	29.44
729.635	78.44
729.97	31.44
730.304	29.44
730.639	33.44
730.974	25.44
731.308	37.44
731.643	19.44
731.977	43.44
732.311	31.44
732.646	23.44
732.98	25.44
733.314	20.44
733.649	36.44
733.983	39.44
734.317	61.44
734.651	26.44
734.985	34.44
735.319	23.44
735.653	29.44
735.987	38.44
736.321	45.44
736.654	17.44
736.988	36.44
737.322	46.44
737.655	37.44
737.989	30.44
738.322	25.44
738.656	19.44
738.989	29.44
739.323	23.44
739.656	32.44
739.989	38.44
740.323	21.44
740.656	21.44
740.989	21.44
741.322	26.44
741.655	28.44
741.988	43.44
742.321	40.44
742.654	20.44
742.987	19.44
743.319	25.44
743.652	25.44
743.985	30.44
744.317	19.44
744.65	15.44
744.983	29.44
745.315	15.44
745.648	20.44
745.98	22.44
746.312	23.44
746.645	26.44
746.977	38.44
747.309	23.44
747.641	23.44
747.973	31.44
748.305	15.44
748.637	18.44
748.969	13.44
749.301	32.44
749.633	16.44
749.965	15.44
750.297	26.44
750.628	37.44
750.96	26.44
751.292	41.44
751.623	21.44
751.955	25.44
752.286	26.44
752.618	11.44
752.949	12.44
753.28	39.44
753.611	16.44
753.943	24.44
754.274	27.44
754.605	23.44
754.936	24.44
755.267	21.44
755.598	27.44
755.929	15.44
756.26	24.44
756.591	143.44
756.921	23.44
757.252	24.44
757.583	21.44
757.913	19.44
758.244	14.44
758.574	23.44
758.905	15.44
759.235	32.44
759.566	11.44
759.896	32.44
760.226	22.44
760.557	10.44
760.887	14.44
761.217	19.44
761.547	32.44
761.877	23.44
762.207	35.44
762.537	19.44
762.867	18.44
763.197	46.44
763.526	14.44
763.856	30.44
764.186	30.44
764.515	11.44
764.845	8.44
765.175	24.44
765.504	18.44
765.833	7.44
766.163	14.44
766.492	10.44
766.821	19.44
767.151	23.44
767.48	13.44
767.809	24.44
768.138	19.44
768.467	13.44
768.796	11.44
769.125	13.44
769.454	12.44
769.783	22.44
770.112	18.44
770.44	21.44
770.769	13.44
771.098	26.44
771.426	21.44
771.755	14.44
772.083	12.44
772.412	19.44
772.74	13.44
773.069	84.44
773.397	27.44
773.725	14.44
774.053	47.44
774.381	27.44
774.71	24.44
775.038	11.44
775.366	13.44
775.693	15.44
776.021	18.44
776.349	10.44
776.677	19.44
777.005	15.44
777.332	16.44
777.66	7.44
777.988	18.44
778.315	27.44
778.643	14.44
778.97	12.44
779.298	12.44
779.625	15.44
779.952	15.44
780.28	24.44
780.607	16.44
780.934	27.44
781.261	23.44
781.588	11.44
781.915	26.44
782.242	21.44
782.569	30.44
782.896	19.44
783.223	16.44
783.549	23.44
783.876	18.44
784.203	10.44
784.529	44.44
784.856	21.44
785.182	21.44
785.509	27.44
785.835	16.44
786.162	20.44
786.488	17.44
786.814	11.44
787.14	30.44
787.466	18.44
787.793	26.44
788.119	9.44
788.445	12.44
788.771	25.44
789.097	16.44
789.422	20.44
789.748	10.44
790.074	9.44
790.4	37.44
790.725	17.44
791.051	84.44
791.376	15.44
791.702	16.44
792.027	15.44
792.353	16.44
792.678	18.44
