Data from USB2G147421__7__12-40-23-852.txt Node

Date: Tue Jun 28 12:40:23 UTC 2022
User: yes
Spectrometer: USB2G14742
Trigger mode: 4
Integration Time (sec): 2.000000E0
Scans to average: 1
Electric dark correction enabled: true
Nonlinearity correction enabled: false
Boxcar width: 0
XAxis mode: Wavelengths
Number of Pixels in Spectrum: 2048
>>>>>Begin Spectral Data<<<<<
339.471	-153.17
339.856	-5.17
340.241	-2.17
340.625	-4.17
341.01	-5.17
341.395	39.83
341.779	7.83
342.163	8.83
342.548	13.83
342.932	14.83
343.317	3.83
343.701	11.83
344.085	13.83
344.469	7.83
344.853	3.83
345.238	4.83
345.622	7.83
346.006	30.83
346.39	6.83
346.774	8.83
347.157	13.83
347.541	7.83
347.925	2.83
348.309	12.83
348.693	31.83
349.076	7.83
349.46	26.83
349.843	13.83
350.227	11.83
350.61	69.83
350.994	16.83
351.377	15.83
351.761	34.83
352.144	24.83
352.527	7.83
352.91	9.83
353.294	8.83
353.677	11.83
354.06	20.83
354.443	95.83
354.826	3.83
355.209	5.83
355.592	4.83
355.975	8.83
356.358	20.83
356.74	14.83
357.123	7.83
357.506	12.83
357.889	13.83
358.271	21.83
358.654	6.83
359.036	18.83
359.419	10.83
359.801	10.83
360.184	12.83
360.566	15.83
360.948	24.83
361.331	12.83
361.713	10.83
362.095	15.83
362.477	4.83
362.859	10.83
363.241	14.83
363.623	8.83
364.005	21.83
364.387	19.83
364.769	6.83
365.151	13.83
365.533	29.83
365.915	28.83
366.296	9.83
366.678	62.83
367.06	11.83
367.441	15.83
367.823	29.83
368.204	13.83
368.586	17.83
368.967	15.83
369.348	25.83
369.73	19.83
370.111	12.83
370.492	3.83
370.873	15.83
371.255	42.83
371.636	13.83
372.017	21.83
372.398	20.83
372.779	20.83
373.16	10.83
373.54	7.83
373.921	11.83
374.302	5.83
374.683	17.83
375.064	10.83
375.444	8.83
375.825	16.83
376.205	9.83
376.586	18.83
376.966	16.83
377.347	14.83
377.727	16.83
378.108	16.83
378.488	8.83
378.868	2.83
379.248	14.83
379.629	5.83
380.009	37.83
380.389	12.83
380.769	13.83
381.149	9.83
381.529	20.83
381.909	27.83
382.289	10.83
382.668	89.83
383.048	10.83
383.428	5.83
383.808	7.83
384.187	12.83
384.567	13.83
384.946	6.83
385.326	14.83
385.705	21.83
386.085	5.83
386.464	25.83
386.844	21.83
387.223	8.83
387.602	14.83
387.981	11.83
388.361	8.83
388.74	17.83
389.119	7.83
389.498	10.83
389.877	12.83
390.256	11.83
390.635	18.83
391.013	19.83
391.392	3.83
391.771	48.83
392.15	13.83
392.528	13.83
392.907	4.83
393.286	19.83
393.664	26.83
394.043	10.83
394.421	15.83
394.8	16.83
395.178	7.83
395.556	17.83
395.935	14.83
396.313	9.83
396.691	16.83
397.069	9.83
397.447	6.83
397.825	14.83
398.203	11.83
398.581	25.83
398.959	14.83
399.337	17.83
399.715	74.83
400.093	10.83
400.471	8.83
400.848	8.83
401.226	14.83
401.604	8.83
401.981	12.83
402.359	19.83
402.736	11.83
403.114	37.83
403.491	16.83
403.868	18.83
404.246	50.83
404.623	24.83
405	8.83
405.377	8.83
405.755	14.83
406.132	6.83
406.509	6.83
406.886	15.83
407.263	19.83
407.64	8.83
408.017	13.83
408.393	17.83
408.77	19.83
409.147	6.83
409.524	10.83
409.9	10.83
410.277	16.83
410.653	14.83
411.03	15.83
411.406	6.83
411.783	34.83
412.159	19.83
412.536	16.83
412.912	9.83
413.288	25.83
413.664	12.83
414.04	4.83
414.417	17.83
414.793	14.83
415.169	17.83
415.545	26.83
415.921	20.83
416.297	34.83
416.672	9.83
417.048	14.83
417.424	8.83
417.8	36.83
418.175	7.83
418.551	9.83
418.927	7.83
419.302	68.83
419.678	23.83
420.053	9.83
420.429	20.83
420.804	9.83
421.179	0.83
421.554	11.83
421.93	14.83
422.305	65.83
422.68	17.83
423.055	14.83
423.43	10.83
423.805	14.83
424.18	11.83
424.555	12.83
424.93	9.83
425.305	6.83
425.68	10.83
426.054	14.83
426.429	17.83
426.804	23.83
427.178	23.83
427.553	6.83
427.927	57.83
428.302	11.83
428.676	9.83
429.051	10.83
429.425	9.83
429.799	26.83
430.174	14.83
430.548	15.83
430.922	27.83
431.296	11.83
431.67	23.83
432.044	28.83
432.418	8.83
432.792	5.83
433.166	12.83
433.54	20.83
433.914	21.83
434.287	16.83
434.661	12.83
435.035	13.83
435.408	15.83
435.782	18.83
436.156	18.83
436.529	53.83
436.903	9.83
437.276	12.83
437.649	30.83
438.023	62.83
438.396	13.83
438.769	12.83
439.142	17.83
439.515	29.83
439.889	22.83
440.262	18.83
440.635	30.83
441.008	29.83
441.38	26.83
441.753	14.83
442.126	19.83
442.499	18.83
442.872	79.83
443.244	63.83
443.617	7.83
443.99	24.83
444.362	23.83
444.735	15.83
445.107	18.83
445.48	50.83
445.852	10.83
446.224	16.83
446.597	17.83
446.969	23.83
447.341	31.83
447.713	26.83
448.085	14.83
448.457	27.83
448.829	16.83
449.201	28.83
449.573	29.83
449.945	28.83
450.317	18.83
450.689	23.83
451.061	24.83
451.432	21.83
451.804	28.83
452.176	49.83
452.547	19.83
452.919	21.83
453.29	28.83
453.662	22.83
454.033	19.83
454.404	31.83
454.776	20.83
455.147	19.83
455.518	20.83
455.889	24.83
456.26	23.83
456.631	28.83
457.002	22.83
457.373	15.83
457.744	39.83
458.115	22.83
458.486	26.83
458.857	19.83
459.228	19.83
459.598	18.83
459.969	15.83
460.34	32.83
460.71	16.83
461.081	14.83
461.451	33.83
461.822	25.83
462.192	16.83
462.563	11.83
462.933	22.83
463.303	19.83
463.673	34.83
464.044	21.83
464.414	26.83
464.784	19.83
465.154	18.83
465.524	17.83
465.894	21.83
466.264	12.83
466.634	26.83
467.003	19.83
467.373	14.83
467.743	37.83
468.113	27.83
468.482	16.83
468.852	28.83
469.221	23.83
469.591	21.83
469.96	29.83
470.33	14.83
470.699	69.83
471.068	10.83
471.438	23.83
471.807	23.83
472.176	31.83
472.545	41.83
472.914	13.83
473.283	24.83
473.652	21.83
474.021	38.83
474.39	22.83
474.759	22.83
475.128	11.83
475.497	9.83
475.865	8.83
476.234	18.83
476.603	12.83
476.971	16.83
477.34	14.83
477.708	28.83
478.077	21.83
478.445	22.83
478.814	18.83
479.182	22.83
479.55	19.83
479.919	17.83
480.287	13.83
480.655	30.83
481.023	7.83
481.391	25.83
481.759	22.83
482.127	24.83
482.495	19.83
482.863	21.83
483.231	11.83
483.598	23.83
483.966	27.83
484.334	20.83
484.701	27.83
485.069	29.83
485.437	49.83
485.804	16.83
486.172	21.83
486.539	21.83
486.906	16.83
487.274	26.83
487.641	29.83
488.008	24.83
488.375	41.83
488.743	26.83
489.11	22.83
489.477	9.83
489.844	13.83
490.211	14.83
490.578	14.83
490.945	28.83
491.311	23.83
491.678	22.83
492.045	37.83
492.412	16.83
492.778	22.83
493.145	37.83
493.511	19.83
493.878	21.83
494.244	17.83
494.611	27.83
494.977	21.83
495.344	13.83
495.71	68.83
496.076	17.83
496.442	34.83
496.808	22.83
497.175	25.83
497.541	18.83
497.907	27.83
498.273	42.83
498.638	44.83
499.004	23.83
499.37	25.83
499.736	57.83
500.102	19.83
500.467	36.83
500.833	27.83
501.199	34.83
501.564	31.83
501.93	26.83
502.295	39.83
502.661	30.83
503.026	32.83
503.391	30.83
503.757	34.83
504.122	29.83
504.487	31.83
504.852	46.83
505.217	36.83
505.582	24.83
505.947	34.83
506.312	38.83
506.677	33.83
507.042	32.83
507.407	42.83
507.772	56.83
508.136	54.83
508.501	42.83
508.866	31.83
509.23	57.83
509.595	41.83
509.959	43.83
510.324	36.83
510.688	51.83
511.053	49.83
511.417	96.83
511.781	35.83
512.146	34.83
512.51	57.83
512.874	85.83
513.238	44.83
513.602	39.83
513.966	46.83
514.33	40.83
514.694	32.83
515.058	35.83
515.422	59.83
515.785	60.83
516.149	42.83
516.513	59.83
516.876	41.83
517.24	46.83
517.604	42.83
517.967	46.83
518.331	41.83
518.694	47.83
519.057	55.83
519.421	56.83
519.784	48.83
520.147	62.83
520.51	64.83
520.873	42.83
521.237	54.83
521.6	51.83
521.963	43.83
522.326	49.83
522.688	48.83
523.051	48.83
523.414	56.83
523.777	130.83
524.14	54.83
524.502	58.83
524.865	47.83
525.228	53.83
525.59	57.83
525.953	60.83
526.315	44.83
526.677	51.83
527.04	91.83
527.402	56.83
527.764	56.83
528.127	48.83
528.489	61.83
528.851	54.83
529.213	56.83
529.575	55.83
529.937	74.83
530.299	51.83
530.661	56.83
531.023	60.83
531.384	59.83
531.746	55.83
532.108	65.83
532.47	56.83
532.831	59.83
533.193	54.83
533.554	61.83
533.916	55.83
534.277	62.83
534.639	63.83
535	59.83
535.361	68.83
535.723	72.83
536.084	67.83
536.445	83.83
536.806	133.83
537.167	89.83
537.528	66.83
537.889	84.83
538.25	70.83
538.611	69.83
538.972	72.83
539.333	57.83
539.693	83.83
540.054	107.83
540.415	63.83
540.775	57.83
541.136	69.83
541.496	67.83
541.857	84.83
542.217	63.83
542.578	73.83
542.938	96.83
543.298	76.83
543.658	76.83
544.019	81.83
544.379	68.83
544.739	79.83
545.099	77.83
545.459	71.83
545.819	79.83
546.179	66.83
546.539	102.83
546.899	76.83
547.258	93.83
547.618	76.83
547.978	85.83
548.337	93.83
548.697	77.83
549.056	100.83
549.416	77.83
549.775	81.83
550.135	83.83
550.494	72.83
550.854	101.83
551.213	81.83
551.572	87.83
551.931	82.83
552.29	86.83
552.649	88.83
553.008	85.83
553.367	121.83
553.726	107.83
554.085	81.83
554.444	179.83
554.803	85.83
555.162	97.83
555.52	90.83
555.879	99.83
556.238	85.83
556.596	76.83
556.955	101.83
557.313	99.83
557.672	96.83
558.03	81.83
558.388	86.83
558.747	106.83
559.105	82.83
559.463	88.83
559.821	84.83
560.179	95.83
560.537	90.83
560.896	91.83
561.253	80.83
561.611	77.83
561.969	88.83
562.327	98.83
562.685	97.83
563.043	90.83
563.4	96.83
563.758	96.83
564.116	95.83
564.473	95.83
564.831	88.83
565.188	91.83
565.546	126.83
565.903	105.83
566.26	92.83
566.617	102.83
566.975	110.83
567.332	104.83
567.689	91.83
568.046	101.83
568.403	114.83
568.76	96.83
569.117	107.83
569.474	101.83
569.831	98.83
570.188	94.83
570.544	110.83
570.901	107.83
571.258	131.83
571.614	103.83
571.971	103.83
572.328	98.83
572.684	104.83
573.04	124.83
573.397	98.83
573.753	118.83
574.109	103.83
574.466	112.83
574.822	100.83
575.178	111.83
575.534	110.83
575.89	118.83
576.246	113.83
576.602	117.83
576.958	120.83
577.314	118.83
577.67	99.83
578.026	110.83
578.381	109.83
578.737	108.83
579.093	112.83
579.448	119.83
579.804	139.83
580.159	117.83
580.515	95.83
580.87	110.83
581.226	101.83
581.581	124.83
581.936	120.83
582.291	113.83
582.647	110.83
583.002	131.83
583.357	106.83
583.712	118.83
584.067	106.83
584.422	112.83
584.777	111.83
585.131	109.83
585.486	105.83
585.841	108.83
586.196	133.83
586.55	107.83
586.905	107.83
587.26	99.83
587.614	104.83
587.969	132.83
588.323	114.83
588.677	129.83
589.032	116.83
589.386	111.83
589.74	138.83
590.094	115.83
590.449	131.83
590.803	149.83
591.157	114.83
591.511	138.83
591.865	117.83
592.219	129.83
592.573	109.83
592.926	115.83
593.28	110.83
593.634	143.83
593.988	103.83
594.341	95.83
594.695	111.83
595.048	97.83
595.402	101.83
595.755	105.83
596.109	123.83
596.462	126.83
596.815	108.83
597.169	121.83
597.522	107.83
597.875	147.83
598.228	116.83
598.581	109.83
598.934	137.83
599.287	99.83
599.64	111.83
599.993	106.83
600.346	107.83
600.698	108.83
601.051	112.83
601.404	101.83
601.757	99.83
602.109	118.83
602.462	106.83
602.814	98.83
603.167	100.83
603.519	108.83
603.871	103.83
604.224	106.83
604.576	89.83
604.928	124.83
605.28	102.83
605.633	106.83
605.985	109.83
606.337	98.83
606.689	91.83
607.041	128.83
607.392	103.83
607.744	102.83
608.096	97.83
608.448	93.83
608.8	87.83
609.151	91.83
609.503	86.83
609.854	94.83
610.206	126.83
610.557	97.83
610.909	85.83
611.26	105.83
611.612	99.83
611.963	83.83
612.314	108.83
612.665	90.83
613.016	88.83
613.367	96.83
613.719	111.83
614.07	82.83
614.42	84.83
614.771	86.83
615.122	103.83
615.473	91.83
615.824	94.83
616.174	100.83
616.525	82.83
616.876	78.83
617.226	82.83
617.577	78.83
617.927	81.83
618.278	81.83
618.628	146.83
618.979	92.83
619.329	81.83
619.679	94.83
620.029	89.83
620.379	71.83
620.729	96.83
621.08	81.83
621.43	107.83
621.779	103.83
622.129	81.83
622.479	81.83
622.829	82.83
623.179	79.83
623.529	71.83
623.878	84.83
624.228	68.83
624.577	71.83
624.927	67.83
625.276	72.83
625.626	77.83
625.975	87.83
626.325	75.83
626.674	118.83
627.023	71.83
627.372	71.83
627.722	101.83
628.071	87.83
628.42	83.83
628.769	115.83
629.118	72.83
629.467	70.83
629.815	82.83
630.164	62.83
630.513	66.83
630.862	103.83
631.21	75.83
631.559	66.83
631.908	59.83
632.256	57.83
632.605	60.83
632.953	67.83
633.302	62.83
633.65	82.83
633.998	130.83
634.346	71.83
634.695	52.83
635.043	55.83
635.391	83.83
635.739	56.83
636.087	65.83
636.435	72.83
636.783	66.83
637.131	53.83
637.479	66.83
637.826	59.83
638.174	60.83
638.522	57.83
638.869	101.83
639.217	56.83
639.564	58.83
639.912	50.83
640.259	58.83
640.607	59.83
640.954	70.83
641.301	61.83
641.649	52.83
641.996	58.83
642.343	60.83
642.69	57.83
643.037	66.83
643.384	76.83
643.731	47.83
644.078	79.83
644.425	41.83
644.772	53.83
645.119	50.83
645.465	45.83
645.812	54.83
646.159	57.83
646.505	60.83
646.852	68.83
647.198	42.83
647.545	48.83
647.891	64.83
648.237	54.83
648.584	58.83
648.93	47.83
649.276	56.83
649.622	59.83
649.969	67.83
650.315	61.83
650.661	54.83
651.007	48.83
651.352	59.83
651.698	41.83
652.044	41.83
652.39	52.83
652.736	51.83
653.081	42.83
653.427	45.83
653.773	51.83
654.118	46.83
654.464	38.83
654.809	51.83
655.154	36.83
655.5	48.83
655.845	34.83
656.19	40.83
656.536	36.83
656.881	43.83
657.226	28.83
657.571	97.83
657.916	37.83
658.261	36.83
658.606	42.83
658.951	25.83
659.295	28.83
659.64	26.83
659.985	29.83
660.33	31.83
660.674	38.83
661.019	39.83
661.363	34.83
661.708	42.83
662.052	21.83
662.397	29.83
662.741	37.83
663.085	34.83
663.429	40.83
663.774	66.83
664.118	17.83
664.462	33.83
664.806	22.83
665.15	41.83
665.494	24.83
665.838	29.83
666.182	34.83
666.526	36.83
666.869	26.83
667.213	27.83
667.557	28.83
667.9	44.83
668.244	34.83
668.587	39.83
668.931	27.83
669.274	20.83
669.618	27.83
669.961	32.83
670.304	23.83
670.648	32.83
670.991	22.83
671.334	17.83
671.677	21.83
672.02	20.83
672.363	20.83
672.706	27.83
673.049	35.83
673.392	27.83
673.735	23.83
674.077	19.83
674.42	30.83
674.763	16.83
675.105	20.83
675.448	36.83
675.79	17.83
676.133	28.83
676.475	16.83
676.818	18.83
677.16	16.83
677.502	33.83
677.844	46.83
678.187	13.83
678.529	48.83
678.871	31.83
679.213	23.83
679.555	26.83
679.897	27.83
680.239	20.83
680.58	25.83
680.922	23.83
681.264	38.83
681.606	24.83
681.947	22.83
682.289	23.83
682.631	60.83
682.972	19.83
683.313	22.83
683.655	29.83
683.996	15.83
684.338	21.83
684.679	16.83
685.02	18.83
685.361	26.83
685.702	23.83
686.043	25.83
686.384	15.83
686.725	19.83
687.066	32.83
687.407	20.83
687.748	19.83
688.089	43.83
688.43	19.83
688.77	56.83
689.111	30.83
689.451	23.83
689.792	25.83
690.132	23.83
690.473	23.83
690.813	21.83
691.154	27.83
691.494	25.83
691.834	24.83
692.174	23.83
692.515	13.83
692.855	21.83
693.195	31.83
693.535	32.83
693.875	22.83
694.215	22.83
694.554	28.83
694.894	24.83
695.234	30.83
695.574	24.83
695.913	28.83
696.253	21.83
696.593	24.83
696.932	28.83
697.272	25.83
697.611	14.83
697.95	32.83
698.29	22.83
698.629	25.83
698.968	15.83
699.307	22.83
699.647	24.83
699.986	31.83
700.325	25.83
700.664	12.83
701.003	20.83
701.341	15.83
701.68	12.83
702.019	14.83
702.358	19.83
702.697	23.83
703.035	22.83
703.374	19.83
703.712	31.83
704.051	11.83
704.389	28.83
704.728	18.83
705.066	15.83
705.404	21.83
705.743	23.83
706.081	16.83
706.419	12.83
706.757	22.83
707.095	36.83
707.433	22.83
707.771	26.83
708.109	14.83
708.447	20.83
708.785	21.83
709.123	27.83
709.46	14.83
709.798	19.83
710.136	26.83
710.473	22.83
710.811	27.83
711.148	31.83
711.486	20.83
711.823	12.83
712.16	22.83
712.498	15.83
712.835	26.83
713.172	18.83
713.509	30.83
713.846	74.83
714.183	35.83
714.52	18.83
714.857	12.83
715.194	21.83
715.531	21.83
715.868	26.83
716.205	19.83
716.541	21.83
716.878	33.83
717.215	18.83
717.551	26.83
717.888	16.83
718.224	69.83
718.561	25.83
718.897	18.83
719.233	16.83
719.57	19.83
719.906	12.83
720.242	14.83
720.578	14.83
720.914	23.83
721.25	25.83
721.586	9.83
721.922	13.83
722.258	28.83
722.594	11.83
722.929	22.83
723.265	17.83
723.601	24.83
723.937	35.83
724.272	11.83
724.608	18.83
724.943	13.83
725.279	5.83
725.614	11.83
725.949	20.83
726.285	19.83
726.62	45.83
726.955	5.83
727.29	14.83
727.625	14.83
727.96	20.83
728.295	33.83
728.63	19.83
728.965	12.83
729.3	14.83
729.635	57.83
729.97	18.83
730.304	12.83
730.639	18.83
730.974	11.83
731.308	27.83
731.643	5.83
731.977	27.83
732.311	21.83
732.646	13.83
732.98	18.83
733.314	6.83
733.649	89.83
733.983	29.83
734.317	45.83
734.651	18.83
734.985	12.83
735.319	9.83
735.653	13.83
735.987	30.83
736.321	31.83
736.654	7.83
736.988	22.83
737.322	30.83
737.655	23.83
737.989	21.83
738.322	16.83
738.656	11.83
738.989	16.83
739.323	16.83
739.656	24.83
739.989	29.83
740.323	12.83
740.656	11.83
740.989	8.83
741.322	10.83
741.655	20.83
741.988	29.83
742.321	23.83
742.654	10.83
742.987	7.83
743.319	18.83
743.652	22.83
743.985	24.83
744.317	9.83
744.65	11.83
744.983	19.83
745.315	10.83
745.648	10.83
745.98	11.83
746.312	12.83
746.645	18.83
746.977	28.83
747.309	25.83
747.641	15.83
747.973	22.83
748.305	5.83
748.637	8.83
748.969	12.83
749.301	22.83
749.633	8.83
749.965	6.83
750.297	18.83
750.628	20.83
750.96	23.83
751.292	29.83
751.623	13.83
751.955	17.83
752.286	23.83
752.618	11.83
752.949	8.83
753.28	23.83
753.611	11.83
753.943	17.83
754.274	24.83
754.605	17.83
754.936	17.83
755.267	13.83
755.598	27.83
755.929	8.83
756.26	9.83
756.591	133.83
756.921	15.83
757.252	16.83
757.583	14.83
757.913	16.83
758.244	10.83
758.574	20.83
758.905	10.83
759.235	24.83
759.566	7.83
759.896	31.83
760.226	18.83
760.557	4.83
760.887	5.83
761.217	15.83
761.547	25.83
761.877	18.83
762.207	28.83
762.537	14.83
762.867	14.83
763.197	39.83
763.526	11.83
763.856	20.83
764.186	20.83
764.515	3.83
764.845	3.83
765.175	18.83
765.504	16.83
765.833	5.83
766.163	11.83
766.492	6.83
766.821	14.83
767.151	24.83
767.48	8.83
767.809	18.83
768.138	15.83
768.467	10.83
768.796	8.83
769.125	5.83
769.454	3.83
769.783	20.83
770.112	14.83
770.44	15.83
770.769	11.83
771.098	24.83
771.426	14.83
771.755	12.83
772.083	11.83
772.412	15.83
772.74	7.83
773.069	73.83
773.397	17.83
773.725	4.83
774.053	45.83
774.381	25.83
774.71	23.83
775.038	6.83
775.366	8.83
775.693	11.83
776.021	19.83
776.349	13.83
776.677	13.83
777.005	10.83
777.332	16.83
777.66	4.83
777.988	13.83
778.315	27.83
778.643	17.83
778.97	10.83
779.298	2.83
779.625	7.83
779.952	12.83
780.28	17.83
780.607	15.83
780.934	20.83
781.261	14.83
781.588	7.83
781.915	28.83
782.242	19.83
782.569	29.83
782.896	18.83
783.223	12.83
783.549	23.83
783.876	22.83
784.203	7.83
784.529	35.83
784.856	26.83
785.182	22.83
785.509	24.83
785.835	16.83
786.162	11.83
786.488	14.83
786.814	4.83
787.14	20.83
787.466	20.83
787.793	21.83
788.119	8.83
788.445	14.83
788.771	30.83
789.097	10.83
789.422	14.83
789.748	8.83
790.074	9.83
790.4	27.83
790.725	14.83
791.051	80.83
791.376	16.83
791.702	19.83
792.027	17.83
792.353	14.83
792.678	18.83
793.004	26.83
793.329	19.83
793.654	9.83
793.979	14.83
794.304	5.83
794.629	20.83
794.954	10.83
795.279	11.83
795.604	21.83
795.929	14.83
796.254	9.83
796.579	2.83
796.903	74.83
797.228	9.83
797.553	36.83
797.877	9.83
798.202	20.83
798.526	18.83
798.851	12.83
799.175	15.83
799.499	10.83
799.823	9.83
800.148	11.83
800.472	3.83
800.796	6.83
801.12	14.83
801.444	15.83
801.768	13.83
802.092	20.83
802.416	14.83
802.74	21.83
803.063	17.83
803.387	20.83
803.711	89.83
804.034	22.83
804.358	19.83
804.681	22.83
805.005	16.83
805.328	15.83
805.652	4.83
805.975	9.83
806.298	22.83
