Data from USB2G147421__32__12-53-34-274.txt Node

Date: Tue Jun 28 12:53:34 UTC 2022
User: yes
Spectrometer: USB2G14742
Trigger mode: 4
Integration Time (sec): 2.000000E0
Scans to average: 1
Electric dark correction enabled: true
Nonlinearity correction enabled: false
Boxcar width: 0
XAxis mode: Wavelengths
Number of Pixels in Spectrum: 2048
>>>>>Begin Spectral Data<<<<<
339.471	-152.22
339.856	-8.22
340.241	-6.22
340.625	-1.22
341.01	1.78
341.395	40.78
341.779	7.78
342.163	8.78
342.548	11.78
342.932	17.78
343.317	3.78
343.701	7.78
344.085	4.78
344.469	6.78
344.853	6.78
345.238	7.78
345.622	11.78
346.006	29.78
346.39	8.78
346.774	9.78
347.157	12.78
347.541	10.78
347.925	5.78
348.309	13.78
348.693	32.78
349.076	4.78
349.46	19.78
349.843	16.78
350.227	8.78
350.61	66.78
350.994	14.78
351.377	13.78
351.761	34.78
352.144	23.78
352.527	9.78
352.91	18.78
353.294	9.78
353.677	13.78
354.06	12.78
354.443	91.78
354.826	9.78
355.209	1.78
355.592	3.78
355.975	11.78
356.358	17.78
356.74	15.78
357.123	11.78
357.506	4.78
357.889	11.78
358.271	24.78
358.654	9.78
359.036	17.78
359.419	10.78
359.801	16.78
360.184	12.78
360.566	12.78
360.948	23.78
361.331	14.78
361.713	2.78
362.095	19.78
362.477	3.78
362.859	7.78
363.241	17.78
363.623	12.78
364.005	18.78
364.387	22.78
364.769	12.78
365.151	20.78
365.533	36.78
365.915	31.78
366.296	9.78
366.678	60.78
367.06	10.78
367.441	14.78
367.823	25.78
368.204	15.78
368.586	6.78
368.967	14.78
369.348	17.78
369.73	21.78
370.111	7.78
370.492	5.78
370.873	15.78
371.255	38.78
371.636	8.78
372.017	19.78
372.398	21.78
372.779	20.78
373.16	7.78
373.54	7.78
373.921	11.78
374.302	8.78
374.683	16.78
375.064	9.78
375.444	5.78
375.825	16.78
376.205	11.78
376.586	23.78
376.966	15.78
377.347	20.78
377.727	10.78
378.108	11.78
378.488	12.78
378.868	5.78
379.248	16.78
379.629	8.78
380.009	42.78
380.389	11.78
380.769	13.78
381.149	8.78
381.529	29.78
381.909	26.78
382.289	13.78
382.668	91.78
383.048	12.78
383.428	6.78
383.808	9.78
384.187	9.78
384.567	18.78
384.946	7.78
385.326	15.78
385.705	23.78
386.085	9.78
386.464	19.78
386.844	18.78
387.223	12.78
387.602	9.78
387.981	16.78
388.361	7.78
388.74	12.78
389.119	4.78
389.498	16.78
389.877	14.78
390.256	7.78
390.635	24.78
391.013	13.78
391.392	7.78
391.771	53.78
392.15	19.78
392.528	16.78
392.907	7.78
393.286	15.78
393.664	24.78
394.043	9.78
394.421	17.78
394.8	16.78
395.178	6.78
395.556	16.78
395.935	13.78
396.313	11.78
396.691	22.78
397.069	8.78
397.447	6.78
397.825	13.78
398.203	9.78
398.581	21.78
398.959	11.78
399.337	16.78
399.715	70.78
400.093	11.78
400.471	5.78
400.848	7.78
401.226	15.78
401.604	18.78
401.981	11.78
402.359	17.78
402.736	12.78
403.114	45.78
403.491	19.78
403.868	22.78
404.246	53.78
404.623	25.78
405	11.78
405.377	9.78
405.755	23.78
406.132	5.78
406.509	6.78
406.886	17.78
407.263	18.78
407.64	6.78
408.017	17.78
408.393	19.78
408.77	18.78
409.147	15.78
409.524	21.78
409.9	15.78
410.277	15.78
410.653	15.78
411.03	18.78
411.406	8.78
411.783	37.78
412.159	17.78
412.536	21.78
412.912	8.78
413.288	25.78
413.664	1.78
414.04	7.78
414.417	17.78
414.793	15.78
415.169	17.78
415.545	32.78
415.921	16.78
416.297	22.78
416.672	9.78
417.048	17.78
417.424	12.78
417.8	42.78
418.175	13.78
418.551	9.78
418.927	9.78
419.302	69.78
419.678	23.78
420.053	10.78
420.429	20.78
420.804	13.78
421.179	8.78
421.554	11.78
421.93	7.78
422.305	62.78
422.68	21.78
423.055	13.78
423.43	9.78
423.805	12.78
424.18	5.78
424.555	16.78
424.93	10.78
425.305	8.78
425.68	9.78
426.054	17.78
426.429	19.78
426.804	17.78
427.178	23.78
427.553	9.78
427.927	67.78
428.302	15.78
428.676	15.78
429.051	16.78
429.425	5.78
429.799	25.78
430.174	14.78
430.548	9.78
430.922	21.78
431.296	14.78
431.67	24.78
432.044	21.78
432.418	12.78
432.792	4.78
433.166	9.78
433.54	22.78
433.914	27.78
434.287	20.78
434.661	10.78
435.035	15.78
435.408	11.78
435.782	20.78
436.156	24.78
436.529	52.78
436.903	15.78
437.276	9.78
437.649	31.78
438.023	59.78
438.396	15.78
438.769	20.78
439.142	16.78
439.515	27.78
439.889	20.78
440.262	23.78
440.635	26.78
441.008	20.78
441.38	20.78
441.753	20.78
442.126	17.78
442.499	16.78
442.872	82.78
443.244	61.78
443.617	11.78
443.99	23.78
444.362	24.78
444.735	11.78
445.107	18.78
445.48	47.78
445.852	12.78
446.224	18.78
446.597	15.78
446.969	19.78
447.341	35.78
447.713	29.78
448.085	20.78
448.457	29.78
448.829	16.78
449.201	30.78
449.573	21.78
449.945	27.78
450.317	20.78
450.689	23.78
451.061	25.78
451.432	24.78
451.804	28.78
452.176	41.78
452.547	24.78
452.919	23.78
453.29	27.78
453.662	29.78
454.033	22.78
454.404	34.78
454.776	20.78
455.147	19.78
455.518	28.78
455.889	21.78
456.26	20.78
456.631	28.78
457.002	23.78
457.373	23.78
457.744	43.78
458.115	25.78
458.486	26.78
458.857	21.78
459.228	22.78
459.598	21.78
459.969	17.78
460.34	30.78
460.71	18.78
461.081	20.78
461.451	32.78
461.822	26.78
462.192	16.78
462.563	17.78
462.933	19.78
463.303	22.78
463.673	27.78
464.044	22.78
464.414	26.78
464.784	23.78
465.154	19.78
465.524	15.78
465.894	19.78
466.264	19.78
466.634	20.78
467.003	24.78
467.373	14.78
467.743	35.78
468.113	26.78
468.482	21.78
468.852	25.78
469.221	24.78
469.591	24.78
469.96	35.78
470.33	13.78
470.699	74.78
471.068	18.78
471.438	25.78
471.807	28.78
472.176	31.78
472.545	34.78
472.914	17.78
473.283	23.78
473.652	21.78
474.021	45.78
474.39	21.78
474.759	31.78
475.128	12.78
475.497	13.78
475.865	8.78
476.234	15.78
476.603	13.78
476.971	12.78
477.34	16.78
477.708	24.78
478.077	23.78
478.445	18.78
478.814	12.78
479.182	23.78
479.55	16.78
479.919	13.78
480.287	21.78
480.655	41.78
481.023	13.78
481.391	16.78
481.759	19.78
482.127	28.78
482.495	15.78
482.863	17.78
483.231	7.78
483.598	21.78
483.966	30.78
484.334	24.78
484.701	30.78
485.069	25.78
485.437	46.78
485.804	13.78
486.172	20.78
486.539	19.78
486.906	18.78
487.274	27.78
487.641	25.78
488.008	25.78
488.375	38.78
488.743	20.78
489.11	26.78
489.477	14.78
489.844	15.78
490.211	19.78
490.578	15.78
490.945	28.78
491.311	25.78
491.678	20.78
492.045	35.78
492.412	16.78
492.778	28.78
493.145	28.78
493.511	23.78
493.878	26.78
494.244	20.78
494.611	22.78
494.977	24.78
495.344	19.78
495.71	67.78
496.076	18.78
496.442	35.78
496.808	18.78
497.175	31.78
497.541	19.78
497.907	23.78
498.273	39.78
498.638	48.78
499.004	23.78
499.37	28.78
499.736	61.78
500.102	21.78
500.467	37.78
500.833	24.78
501.199	34.78
501.564	28.78
501.93	28.78
502.295	41.78
502.661	30.78
503.026	34.78
503.391	30.78
503.757	30.78
504.122	24.78
504.487	27.78
504.852	42.78
505.217	36.78
505.582	31.78
505.947	32.78
506.312	41.78
506.677	28.78
507.042	26.78
507.407	41.78
507.772	61.78
508.136	55.78
508.501	47.78
508.866	36.78
509.23	57.78
509.595	46.78
509.959	42.78
510.324	33.78
510.688	54.78
511.053	47.78
511.417	93.78
511.781	36.78
512.146	38.78
512.51	63.78
512.874	86.78
513.238	39.78
513.602	32.78
513.966	45.78
514.33	42.78
514.694	36.78
515.058	38.78
515.422	54.78
515.785	58.78
516.149	49.78
516.513	56.78
516.876	49.78
517.24	42.78
517.604	39.78
517.967	47.78
518.331	38.78
518.694	43.78
519.057	54.78
519.421	49.78
519.784	50.78
520.147	65.78
520.51	75.78
520.873	47.78
521.237	50.78
521.6	52.78
521.963	39.78
522.326	51.78
522.688	48.78
523.051	51.78
523.414	53.78
523.777	133.78
524.14	50.78
524.502	58.78
524.865	53.78
525.228	63.78
525.59	59.78
525.953	63.78
526.315	57.78
526.677	50.78
527.04	94.78
527.402	51.78
527.764	55.78
528.127	52.78
528.489	58.78
528.851	58.78
529.213	52.78
529.575	55.78
529.937	70.78
530.299	53.78
530.661	55.78
531.023	69.78
531.384	48.78
531.746	55.78
532.108	61.78
532.47	61.78
532.831	56.78
533.193	58.78
533.554	59.78
533.916	59.78
534.277	68.78
534.639	62.78
535	58.78
535.361	69.78
535.723	69.78
536.084	70.78
536.445	83.78
536.806	134.78
537.167	98.78
537.528	64.78
537.889	79.78
538.25	69.78
538.611	68.78
538.972	65.78
539.333	67.78
539.693	86.78
540.054	257.78
540.415	57.78
540.775	59.78
541.136	67.78
541.496	60.78
541.857	78.78
542.217	69.78
542.578	71.78
542.938	90.78
543.298	75.78
543.658	76.78
544.019	75.78
544.379	77.78
544.739	83.78
545.099	71.78
545.459	74.78
545.819	72.78
546.179	70.78
546.539	106.78
546.899	79.78
547.258	91.78
547.618	72.78
547.978	93.78
548.337	86.78
548.697	74.78
549.056	101.78
549.416	78.78
549.775	84.78
550.135	82.78
550.494	73.78
550.854	101.78
551.213	89.78
551.572	86.78
551.931	82.78
552.29	87.78
552.649	94.78
553.008	80.78
553.367	123.78
553.726	106.78
554.085	84.78
554.444	186.78
554.803	73.78
555.162	95.78
555.52	84.78
555.879	92.78
556.238	82.78
556.596	71.78
556.955	83.78
557.313	101.78
557.672	99.78
558.03	83.78
558.388	92.78
558.747	106.78
559.105	86.78
559.463	89.78
559.821	87.78
560.179	100.78
560.537	89.78
560.896	91.78
561.253	85.78
561.611	84.78
561.969	94.78
562.327	91.78
562.685	96.78
563.043	91.78
563.4	91.78
563.758	103.78
564.116	100.78
564.473	92.78
564.831	84.78
565.188	100.78
565.546	126.78
565.903	101.78
566.26	100.78
566.617	102.78
566.975	115.78
567.332	99.78
567.689	99.78
568.046	96.78
568.403	112.78
568.76	94.78
569.117	109.78
569.474	101.78
569.831	100.78
570.188	105.78
570.544	111.78
570.901	99.78
571.258	129.78
571.614	98.78
571.971	108.78
572.328	105.78
572.684	107.78
573.04	123.78
573.397	89.78
573.753	127.78
574.109	113.78
574.466	112.78
574.822	105.78
575.178	109.78
575.534	110.78
575.89	117.78
576.246	109.78
576.602	117.78
576.958	119.78
577.314	114.78
577.67	101.78
578.026	107.78
578.381	114.78
578.737	102.78
579.093	117.78
579.448	115.78
579.804	138.78
580.159	118.78
580.515	97.78
580.87	115.78
581.226	110.78
581.581	124.78
581.936	124.78
582.291	112.78
582.647	107.78
583.002	134.78
583.357	110.78
583.712	120.78
584.067	102.78
584.422	108.78
584.777	113.78
585.131	119.78
585.486	105.78
585.841	107.78
586.196	129.78
586.55	102.78
586.905	108.78
587.26	116.78
587.614	94.78
587.969	136.78
588.323	120.78
588.677	129.78
589.032	114.78
589.386	111.78
589.74	133.78
590.094	117.78
590.449	128.78
590.803	148.78
591.157	120.78
591.511	143.78
591.865	120.78
592.219	133.78
592.573	101.78
592.926	108.78
593.28	104.78
593.634	133.78
593.988	105.78
594.341	96.78
594.695	118.78
595.048	93.78
595.402	103.78
595.755	99.78
596.109	120.78
596.462	116.78
596.815	112.78
597.169	119.78
597.522	110.78
597.875	147.78
598.228	117.78
598.581	112.78
598.934	145.78
599.287	105.78
599.64	115.78
599.993	104.78
600.346	102.78
600.698	101.78
601.051	106.78
601.404	103.78
601.757	97.78
602.109	118.78
602.462	104.78
602.814	97.78
603.167	102.78
603.519	102.78
603.871	111.78
604.224	109.78
604.576	105.78
604.928	122.78
605.28	98.78
605.633	103.78
605.985	115.78
606.337	102.78
606.689	94.78
607.041	125.78
607.392	89.78
607.744	97.78
608.096	97.78
608.448	90.78
608.8	92.78
609.151	90.78
609.503	95.78
609.854	95.78
610.206	127.78
610.557	109.78
610.909	92.78
611.26	97.78
611.612	91.78
611.963	88.78
612.314	97.78
612.665	84.78
613.016	89.78
613.367	93.78
613.719	107.78
614.07	82.78
614.42	93.78
614.771	83.78
615.122	103.78
615.473	90.78
615.824	93.78
616.174	106.78
616.525	88.78
616.876	76.78
617.226	84.78
617.577	87.78
617.927	83.78
618.278	85.78
618.628	143.78
618.979	94.78
619.329	87.78
619.679	104.78
620.029	99.78
620.379	80.78
620.729	95.78
621.08	85.78
621.43	107.78
621.779	104.78
622.129	89.78
622.479	87.78
622.829	76.78
623.179	80.78
623.529	70.78
623.878	80.78
624.228	68.78
624.577	71.78
624.927	67.78
625.276	63.78
625.626	79.78
625.975	92.78
626.325	70.78
626.674	121.78
627.023	68.78
627.372	80.78
627.722	98.78
628.071	94.78
628.42	79.78
628.769	111.78
629.118	77.78
629.467	72.78
629.815	72.78
630.164	61.78
630.513	82.78
630.862	107.78
631.21	73.78
631.559	67.78
631.908	61.78
632.256	68.78
632.605	56.78
632.953	60.78
633.302	61.78
633.65	78.78
633.998	128.78
634.346	80.78
634.695	56.78
635.043	57.78
635.391	80.78
635.739	55.78
636.087	69.78
636.435	78.78
636.783	69.78
637.131	58.78
637.479	67.78
637.826	62.78
638.174	56.78
638.522	53.78
638.869	95.78
639.217	47.78
639.564	61.78
639.912	51.78
640.259	53.78
640.607	57.78
640.954	70.78
641.301	63.78
641.649	47.78
641.996	61.78
642.343	68.78
642.69	59.78
643.037	63.78
643.384	75.78
643.731	55.78
644.078	83.78
644.425	51.78
644.772	55.78
645.119	47.78
645.465	47.78
645.812	52.78
646.159	63.78
646.505	55.78
646.852	73.78
647.198	45.78
647.545	61.78
647.891	68.78
648.237	52.78
648.584	55.78
648.93	47.78
649.276	53.78
649.622	59.78
649.969	61.78
650.315	53.78
650.661	52.78
651.007	42.78
651.352	63.78
651.698	38.78
652.044	41.78
652.39	51.78
652.736	45.78
653.081	38.78
653.427	47.78
653.773	52.78
654.118	48.78
654.464	37.78
654.809	51.78
655.154	42.78
655.5	45.78
655.845	40.78
656.19	43.78
656.536	34.78
656.881	44.78
657.226	32.78
657.571	95.78
657.916	35.78
658.261	33.78
658.606	41.78
658.951	21.78
659.295	29.78
659.64	29.78
659.985	36.78
660.33	30.78
660.674	39.78
661.019	38.78
661.363	41.78
661.708	44.78
662.052	23.78
662.397	30.78
662.741	31.78
663.085	31.78
663.429	39.78
663.774	69.78
664.118	23.78
664.462	30.78
664.806	25.78
665.15	36.78
665.494	31.78
665.838	22.78
666.182	39.78
666.526	42.78
666.869	17.78
667.213	32.78
667.557	36.78
667.9	42.78
668.244	32.78
668.587	35.78
668.931	26.78
669.274	27.78
669.618	25.78
669.961	32.78
670.304	30.78
670.648	33.78
670.991	22.78
671.334	17.78
671.677	17.78
672.02	23.78
672.363	21.78
672.706	25.78
673.049	40.78
673.392	21.78
673.735	30.78
674.077	19.78
674.42	28.78
674.763	21.78
675.105	32.78
675.448	34.78
675.79	20.78
676.133	25.78
676.475	20.78
676.818	16.78
677.16	14.78
677.502	32.78
677.844	48.78
678.187	14.78
678.529	50.78
678.871	35.78
679.213	26.78
679.555	30.78
679.897	27.78
680.239	25.78
680.58	20.78
680.922	27.78
681.264	37.78
681.606	25.78
681.947	23.78
682.289	26.78
682.631	59.78
682.972	19.78
683.313	31.78
683.655	30.78
683.996	19.78
684.338	24.78
684.679	21.78
685.02	17.78
685.361	28.78
685.702	32.78
686.043	33.78
686.384	18.78
686.725	19.78
687.066	39.78
687.407	17.78
687.748	21.78
688.089	40.78
688.43	23.78
688.77	54.78
689.111	28.78
689.451	26.78
689.792	32.78
690.132	26.78
690.473	26.78
690.813	22.78
691.154	27.78
691.494	25.78
691.834	26.78
692.174	15.78
692.515	22.78
692.855	17.78
693.195	34.78
693.535	27.78
693.875	20.78
694.215	23.78
694.554	37.78
694.894	21.78
695.234	35.78
695.574	30.78
695.913	25.78
696.253	28.78
696.593	29.78
696.932	29.78
697.272	26.78
697.611	20.78
697.95	30.78
698.29	18.78
698.629	25.78
698.968	16.78
699.307	25.78
699.647	27.78
699.986	30.78
700.325	26.78
700.664	14.78
701.003	21.78
701.341	19.78
701.68	13.78
702.019	12.78
702.358	21.78
702.697	22.78
703.035	35.78
703.374	15.78
703.712	29.78
704.051	15.78
704.389	23.78
704.728	22.78
705.066	20.78
705.404	24.78
705.743	23.78
706.081	19.78
706.419	13.78
706.757	21.78
707.095	36.78
707.433	25.78
707.771	23.78
708.109	12.78
708.447	27.78
708.785	21.78
709.123	27.78
709.46	14.78
709.798	16.78
710.136	32.78
710.473	24.78
710.811	33.78
711.148	27.78
711.486	18.78
711.823	14.78
712.16	20.78
712.498	20.78
712.835	29.78
713.172	16.78
713.509	27.78
713.846	75.78
714.183	36.78
714.52	20.78
714.857	19.78
715.194	22.78
715.531	20.78
715.868	31.78
716.205	18.78
716.541	21.78
716.878	33.78
717.215	19.78
717.551	26.78
717.888	25.78
718.224	83.78
718.561	25.78
718.897	14.78
719.233	19.78
719.57	25.78
719.906	14.78
720.242	10.78
720.578	17.78
720.914	20.78
721.25	21.78
721.586	8.78
721.922	11.78
722.258	32.78
722.594	13.78
722.929	25.78
723.265	18.78
723.601	23.78
723.937	36.78
724.272	16.78
724.608	19.78
724.943	15.78
725.279	9.78
725.614	13.78
725.949	24.78
726.285	17.78
726.62	41.78
726.955	6.78
727.29	19.78
727.625	11.78
727.96	21.78
728.295	33.78
728.63	17.78
728.965	8.78
729.3	15.78
729.635	60.78
729.97	22.78
730.304	15.78
730.639	16.78
730.974	16.78
731.308	30.78
731.643	10.78
731.977	30.78
732.311	23.78
732.646	16.78
732.98	18.78
733.314	9.78
733.649	27.78
733.983	19.78
734.317	49.78
734.651	18.78
734.985	18.78
735.319	17.78
735.653	19.78
735.987	27.78
736.321	39.78
736.654	5.78
736.988	25.78
737.322	31.78
737.655	24.78
737.989	24.78
738.322	12.78
738.656	10.78
738.989	17.78
739.323	16.78
739.656	21.78
739.989	25.78
740.323	12.78
740.656	15.78
740.989	12.78
741.322	19.78
741.655	23.78
741.988	31.78
742.321	27.78
742.654	18.78
742.987	9.78
743.319	18.78
743.652	26.78
743.985	30.78
744.317	15.78
744.65	10.78
744.983	24.78
745.315	12.78
745.648	17.78
745.98	18.78
746.312	18.78
746.645	15.78
746.977	28.78
747.309	18.78
747.641	10.78
747.973	29.78
748.305	10.78
748.637	12.78
748.969	14.78
749.301	25.78
749.633	10.78
749.965	11.78
750.297	20.78
750.628	27.78
750.96	23.78
751.292	32.78
751.623	15.78
751.955	22.78
752.286	22.78
752.618	11.78
752.949	4.78
753.28	28.78
753.611	11.78
753.943	22.78
754.274	13.78
754.605	13.78
754.936	18.78
755.267	10.78
755.598	26.78
755.929	9.78
756.26	15.78
756.591	141.78
756.921	15.78
757.252	14.78
757.583	12.78
757.913	19.78
758.244	15.78
758.574	19.78
758.905	13.78
759.235	24.78
759.566	7.78
759.896	30.78
760.226	24.78
760.557	6.78
760.887	6.78
761.217	11.78
761.547	29.78
761.877	23.78
762.207	35.78
762.537	11.78
762.867	10.78
763.197	45.78
763.526	16.78
763.856	33.78
764.186	21.78
764.515	11.78
764.845	5.78
765.175	20.78
765.504	15.78
765.833	6.78
766.163	12.78
766.492	8.78
766.821	15.78
767.151	15.78
767.48	11.78
767.809	17.78
768.138	14.78
768.467	5.78
768.796	11.78
769.125	14.78
769.454	7.78
769.783	23.78
770.112	15.78
770.44	21.78
770.769	10.78
771.098	24.78
771.426	16.78
771.755	14.78
772.083	10.78
772.412	20.78
772.74	7.78
773.069	81.78
773.397	28.78
773.725	8.78
774.053	47.78
774.381	26.78
774.71	27.78
775.038	5.78
775.366	10.78
775.693	10.78
776.021	19.78
776.349	13.78
776.677	18.78
777.005	18.78
777.332	14.78
777.66	6.78
777.988	14.78
778.315	25.78
778.643	17.78
778.97	11.78
779.298	9.78
779.625	7.78
779.952	12.78
780.28	19.78
780.607	16.78
780.934	22.78
781.261	21.78
781.588	11.78
781.915	26.78
782.242	19.78
782.569	39.78
782.896	18.78
783.223	12.78
783.549	18.78
783.876	19.78
784.203	5.78
784.529	41.78
784.856	23.78
785.182	18.78
785.509	21.78
785.835	19.78
786.162	18.78
786.488	20.78
786.814	7.78
787.14	18.78
787.466	20.78
787.793	27.78
788.119	8.78
788.445	9.78
788.771	24.78
789.097	11.78
789.422	19.78
789.748	11.78
790.074	6.78
790.4	31.78
790.725	22.78
791.051	86.78
791.376	16.78
791.702	18.78
792.027	14.78
792.353	21.78
792.678	23.78
793.004	27.78
793.329	22.78
793.654	17.78
793.979	17.78
794.304	11.78
794.629	21.78
794.954	15.78
795.279	17.78
795.604	25.78
795.929	17.78
796.254	11.78
796.579	3.78
796.903	85.78
797.228	6.78
797.553	34.78
797.877	13.78
798.202	19.78
798.526	17.78
798.851	18.78
799.175	14.78
799.499	18.78
799.823	9.78
800.148	8.78
800.472	6.78
800.796	10.78
801.12	17.78
801.444	14.78
801.768	13.78
802.092	14.78
802.416	13.78
802.74	28.78
803.063	20.78
803.387	23.78
803.711	98.78
804.034	21.78
804.358	13.78
804.681	22.78
805.005	17.78
805.328	13.78
805.652	4.78
