Data from USB2G147421__3__12-40-15-662.txt Node

Date: Tue Jun 28 12:40:15 UTC 2022
User: yes
Spectrometer: USB2G14742
Trigger mode: 4
Integration Time (sec): 2.000000E0
Scans to average: 1
Electric dark correction enabled: true
Nonlinearity correction enabled: false
Boxcar width: 0
XAxis mode: Wavelengths
Number of Pixels in Spectrum: 2048
>>>>>Begin Spectral Data<<<<<
339.471	-152.72
339.856	-3.72
340.241	-5.72
340.625	-3.72
341.01	-2.72
341.395	38.28
341.779	11.28
342.163	8.28
342.548	9.28
342.932	16.28
343.317	11.28
343.701	11.28
344.085	7.28
344.469	6.28
344.853	4.28
345.238	7.28
345.622	12.28
346.006	25.28
346.39	10.28
346.774	14.28
347.157	13.28
347.541	8.28
347.925	7.28
348.309	4.28
348.693	28.28
349.076	9.28
349.46	22.28
349.843	15.28
350.227	15.28
350.61	63.28
350.994	14.28
351.377	8.28
351.761	29.28
352.144	29.28
352.527	4.28
352.91	11.28
353.294	10.28
353.677	11.28
354.06	11.28
354.443	92.28
354.826	3.28
355.209	8.28
355.592	8.28
355.975	10.28
356.358	22.28
356.74	14.28
357.123	12.28
357.506	12.28
357.889	10.28
358.271	24.28
358.654	11.28
359.036	19.28
359.419	15.28
359.801	17.28
360.184	11.28
360.566	15.28
360.948	27.28
361.331	9.28
361.713	9.28
362.095	19.28
362.477	4.28
362.859	11.28
363.241	15.28
363.623	10.28
364.005	22.28
364.387	20.28
364.769	13.28
365.151	14.28
365.533	35.28
365.915	31.28
366.296	15.28
366.678	61.28
367.06	13.28
367.441	17.28
367.823	27.28
368.204	13.28
368.586	12.28
368.967	16.28
369.348	15.28
369.73	12.28
370.111	14.28
370.492	6.28
370.873	14.28
371.255	39.28
371.636	12.28
372.017	17.28
372.398	23.28
372.779	17.28
373.16	12.28
373.54	5.28
373.921	13.28
374.302	8.28
374.683	17.28
375.064	12.28
375.444	9.28
375.825	13.28
376.205	13.28
376.586	23.28
376.966	11.28
377.347	18.28
377.727	10.28
378.108	14.28
378.488	11.28
378.868	10.28
379.248	17.28
379.629	15.28
380.009	43.28
380.389	11.28
380.769	12.28
381.149	5.28
381.529	31.28
381.909	30.28
382.289	11.28
382.668	93.28
383.048	16.28
383.428	5.28
383.808	7.28
384.187	13.28
384.567	19.28
384.946	6.28
385.326	20.28
385.705	20.28
386.085	8.28
386.464	22.28
386.844	23.28
387.223	10.28
387.602	9.28
387.981	16.28
388.361	10.28
388.74	17.28
389.119	9.28
389.498	18.28
389.877	19.28
390.256	10.28
390.635	21.28
391.013	21.28
391.392	8.28
391.771	44.28
392.15	17.28
392.528	12.28
392.907	11.28
393.286	17.28
393.664	23.28
394.043	11.28
394.421	17.28
394.8	10.28
395.178	8.28
395.556	20.28
395.935	16.28
396.313	11.28
396.691	17.28
397.069	9.28
397.447	3.28
397.825	17.28
398.203	11.28
398.581	26.28
398.959	11.28
399.337	18.28
399.715	78.28
400.093	8.28
400.471	10.28
400.848	6.28
401.226	11.28
401.604	14.28
401.981	17.28
402.359	18.28
402.736	13.28
403.114	39.28
403.491	25.28
403.868	17.28
404.246	56.28
404.623	27.28
405	13.28
405.377	4.28
405.755	16.28
406.132	8.28
406.509	8.28
406.886	14.28
407.263	22.28
407.64	4.28
408.017	21.28
408.393	21.28
408.77	21.28
409.147	15.28
409.524	15.28
409.9	17.28
410.277	13.28
410.653	14.28
411.03	18.28
411.406	11.28
411.783	45.28
412.159	20.28
412.536	20.28
412.912	10.28
413.288	27.28
413.664	8.28
414.04	12.28
414.417	23.28
414.793	10.28
415.169	17.28
415.545	24.28
415.921	20.28
416.297	31.28
416.672	9.28
417.048	14.28
417.424	13.28
417.8	40.28
418.175	15.28
418.551	10.28
418.927	7.28
419.302	74.28
419.678	31.28
420.053	7.28
420.429	22.28
420.804	15.28
421.179	8.28
421.554	17.28
421.93	13.28
422.305	59.28
422.68	20.28
423.055	16.28
423.43	15.28
423.805	15.28
424.18	4.28
424.555	14.28
424.93	15.28
425.305	9.28
425.68	11.28
426.054	16.28
426.429	20.28
426.804	21.28
427.178	22.28
427.553	4.28
427.927	65.28
428.302	15.28
428.676	14.28
429.051	20.28
429.425	9.28
429.799	23.28
430.174	15.28
430.548	13.28
430.922	28.28
431.296	11.28
431.67	22.28
432.044	22.28
432.418	9.28
432.792	11.28
433.166	12.28
433.54	18.28
433.914	23.28
434.287	16.28
434.661	12.28
435.035	14.28
435.408	19.28
435.782	16.28
436.156	16.28
436.529	55.28
436.903	12.28
437.276	15.28
437.649	28.28
438.023	60.28
438.396	11.28
438.769	17.28
439.142	20.28
439.515	27.28
439.889	26.28
440.262	20.28
440.635	28.28
441.008	31.28
441.38	23.28
441.753	21.28
442.126	18.28
442.499	18.28
442.872	76.28
443.244	57.28
443.617	15.28
443.99	26.28
444.362	27.28
444.735	13.28
445.107	22.28
445.48	52.28
445.852	14.28
446.224	20.28
446.597	18.28
446.969	23.28
447.341	32.28
447.713	29.28
448.085	18.28
448.457	24.28
448.829	15.28
449.201	28.28
449.573	26.28
449.945	30.28
450.317	19.28
450.689	23.28
451.061	25.28
451.432	23.28
451.804	32.28
452.176	45.28
452.547	23.28
452.919	25.28
453.29	31.28
453.662	21.28
454.033	21.28
454.404	37.28
454.776	24.28
455.147	21.28
455.518	27.28
455.889	22.28
456.26	23.28
456.631	27.28
457.002	25.28
457.373	23.28
457.744	36.28
458.115	27.28
458.486	28.28
458.857	19.28
459.228	25.28
459.598	20.28
459.969	19.28
460.34	32.28
460.71	13.28
461.081	21.28
461.451	27.28
461.822	28.28
462.192	16.28
462.563	15.28
462.933	21.28
463.303	21.28
463.673	32.28
464.044	26.28
464.414	24.28
464.784	21.28
465.154	16.28
465.524	16.28
465.894	17.28
466.264	18.28
466.634	26.28
467.003	23.28
467.373	17.28
467.743	31.28
468.113	27.28
468.482	22.28
468.852	26.28
469.221	25.28
469.591	19.28
469.96	28.28
470.33	16.28
470.699	70.28
471.068	15.28
471.438	21.28
471.807	32.28
472.176	28.28
472.545	41.28
472.914	12.28
473.283	33.28
473.652	23.28
474.021	38.28
474.39	22.28
474.759	24.28
475.128	13.28
475.497	13.28
475.865	12.28
476.234	19.28
476.603	10.28
476.971	23.28
477.34	18.28
477.708	34.28
478.077	22.28
478.445	25.28
478.814	13.28
479.182	21.28
479.55	21.28
479.919	18.28
480.287	11.28
480.655	31.28
481.023	13.28
481.391	22.28
481.759	17.28
482.127	20.28
482.495	23.28
482.863	17.28
483.231	13.28
483.598	22.28
483.966	29.28
484.334	21.28
484.701	28.28
485.069	27.28
485.437	47.28
485.804	22.28
486.172	21.28
486.539	24.28
486.906	19.28
487.274	34.28
487.641	30.28
488.008	34.28
488.375	45.28
488.743	31.28
489.11	18.28
489.477	16.28
489.844	16.28
490.211	19.28
490.578	25.28
490.945	29.28
491.311	25.28
491.678	29.28
492.045	41.28
492.412	14.28
492.778	18.28
493.145	32.28
493.511	19.28
493.878	26.28
494.244	19.28
494.611	23.28
494.977	26.28
495.344	20.28
495.71	65.28
496.076	16.28
496.442	39.28
496.808	21.28
497.175	36.28
497.541	24.28
497.907	31.28
498.273	44.28
498.638	40.28
499.004	23.28
499.37	22.28
499.736	60.28
500.102	23.28
500.467	39.28
500.833	28.28
501.199	36.28
501.564	29.28
501.93	31.28
502.295	42.28
502.661	24.28
503.026	31.28
503.391	29.28
503.757	33.28
504.122	30.28
504.487	28.28
504.852	44.28
505.217	35.28
505.582	26.28
505.947	38.28
506.312	37.28
506.677	37.28
507.042	37.28
507.407	42.28
507.772	59.28
508.136	57.28
508.501	46.28
508.866	34.28
509.23	54.28
509.595	38.28
509.959	41.28
510.324	31.28
510.688	52.28
511.053	49.28
511.417	99.28
511.781	42.28
512.146	38.28
512.51	55.28
512.874	82.28
513.238	41.28
513.602	35.28
513.966	49.28
514.33	38.28
514.694	35.28
515.058	34.28
515.422	51.28
515.785	55.28
516.149	47.28
516.513	55.28
516.876	43.28
517.24	38.28
517.604	42.28
517.967	50.28
518.331	36.28
518.694	43.28
519.057	52.28
519.421	44.28
519.784	54.28
520.147	66.28
520.51	69.28
520.873	48.28
521.237	51.28
521.6	51.28
521.963	42.28
522.326	48.28
522.688	46.28
523.051	51.28
523.414	56.28
523.777	122.28
524.14	48.28
524.502	64.28
524.865	47.28
525.228	58.28
525.59	61.28
525.953	60.28
526.315	57.28
526.677	54.28
527.04	89.28
527.402	57.28
527.764	57.28
528.127	56.28
528.489	63.28
528.851	62.28
529.213	54.28
529.575	54.28
529.937	79.28
530.299	53.28
530.661	60.28
531.023	55.28
531.384	55.28
531.746	55.28
532.108	57.28
532.47	59.28
532.831	65.28
533.193	49.28
533.554	73.28
533.916	57.28
534.277	69.28
534.639	57.28
535	56.28
535.361	71.28
535.723	71.28
536.084	66.28
536.445	81.28
536.806	131.28
537.167	97.28
537.528	62.28
537.889	87.28
538.25	72.28
538.611	71.28
538.972	63.28
539.333	66.28
539.693	83.28
540.054	114.28
540.415	60.28
540.775	64.28
541.136	66.28
541.496	65.28
541.857	77.28
542.217	66.28
542.578	75.28
542.938	90.28
543.298	75.28
543.658	77.28
544.019	81.28
544.379	70.28
544.739	75.28
545.099	66.28
545.459	87.28
545.819	76.28
546.179	75.28
546.539	106.28
546.899	78.28
547.258	88.28
547.618	75.28
547.978	87.28
548.337	85.28
548.697	78.28
549.056	100.28
549.416	82.28
549.775	84.28
550.135	82.28
550.494	76.28
550.854	97.28
551.213	92.28
551.572	92.28
551.931	82.28
552.29	82.28
552.649	88.28
553.008	82.28
553.367	114.28
553.726	103.28
554.085	81.28
554.444	183.28
554.803	88.28
555.162	93.28
555.52	86.28
555.879	95.28
556.238	86.28
556.596	78.28
556.955	93.28
557.313	97.28
557.672	91.28
558.03	88.28
558.388	94.28
558.747	112.28
559.105	87.28
559.463	93.28
559.821	83.28
560.179	93.28
560.537	87.28
560.896	90.28
561.253	89.28
561.611	88.28
561.969	92.28
562.327	92.28
562.685	101.28
563.043	86.28
563.4	93.28
563.758	96.28
564.116	102.28
564.473	92.28
564.831	89.28
565.188	102.28
565.546	130.28
565.903	108.28
566.26	101.28
566.617	103.28
566.975	109.28
567.332	105.28
567.689	94.28
568.046	102.28
568.403	110.28
568.76	99.28
569.117	105.28
569.474	107.28
569.831	98.28
570.188	105.28
570.544	107.28
570.901	108.28
571.258	125.28
571.614	99.28
571.971	108.28
572.328	102.28
572.684	104.28
573.04	121.28
573.397	96.28
573.753	128.28
574.109	113.28
574.466	116.28
574.822	103.28
575.178	107.28
575.534	105.28
575.89	114.28
576.246	110.28
576.602	118.28
576.958	112.28
577.314	121.28
577.67	97.28
578.026	105.28
578.381	118.28
578.737	104.28
579.093	108.28
579.448	115.28
579.804	137.28
580.159	126.28
580.515	105.28
580.87	110.28
581.226	113.28
581.581	123.28
581.936	122.28
582.291	115.28
582.647	118.28
583.002	132.28
583.357	111.28
583.712	113.28
584.067	112.28
584.422	121.28
584.777	119.28
585.131	112.28
585.486	113.28
585.841	109.28
586.196	131.28
586.55	113.28
586.905	110.28
587.26	111.28
587.614	103.28
587.969	134.28
588.323	114.28
588.677	124.28
589.032	130.28
589.386	119.28
589.74	142.28
590.094	127.28
590.449	136.28
590.803	148.28
591.157	111.28
591.511	142.28
591.865	127.28
592.219	128.28
592.573	101.28
592.926	106.28
593.28	107.28
593.634	139.28
593.988	107.28
594.341	104.28
594.695	113.28
595.048	98.28
595.402	98.28
595.755	98.28
596.109	130.28
596.462	124.28
596.815	111.28
597.169	121.28
597.522	107.28
597.875	151.28
598.228	114.28
598.581	107.28
598.934	137.28
599.287	108.28
599.64	118.28
599.993	109.28
600.346	106.28
600.698	103.28
601.051	108.28
601.404	98.28
601.757	113.28
602.109	121.28
602.462	111.28
602.814	99.28
603.167	104.28
603.519	103.28
603.871	110.28
604.224	103.28
604.576	101.28
604.928	123.28
605.28	103.28
605.633	109.28
605.985	110.28
606.337	103.28
606.689	93.28
607.041	122.28
607.392	98.28
607.744	108.28
608.096	92.28
608.448	94.28
608.8	92.28
609.151	94.28
609.503	87.28
609.854	93.28
610.206	130.28
610.557	100.28
610.909	85.28
611.26	104.28
611.612	96.28
611.963	82.28
612.314	109.28
612.665	95.28
613.016	96.28
613.367	93.28
613.719	104.28
614.07	93.28
614.42	86.28
614.771	89.28
615.122	96.28
615.473	88.28
615.824	93.28
616.174	100.28
616.525	91.28
616.876	77.28
617.226	88.28
617.577	86.28
617.927	80.28
618.278	75.28
618.628	149.28
618.979	94.28
619.329	80.28
619.679	104.28
620.029	92.28
620.379	78.28
620.729	96.28
621.08	84.28
621.43	97.28
621.779	98.28
622.129	80.28
622.479	90.28
622.829	78.28
623.179	72.28
623.529	69.28
623.878	82.28
624.228	82.28
624.577	68.28
624.927	71.28
625.276	67.28
625.626	84.28
625.975	86.28
626.325	71.28
626.674	117.28
627.023	68.28
627.372	69.28
627.722	97.28
628.071	98.28
628.42	73.28
628.769	114.28
629.118	78.28
629.467	74.28
629.815	77.28
630.164	61.28
630.513	78.28
630.862	107.28
631.21	74.28
631.559	65.28
631.908	60.28
632.256	64.28
632.605	68.28
632.953	58.28
633.302	59.28
633.65	77.28
633.998	128.28
634.346	85.28
634.695	57.28
635.043	63.28
635.391	76.28
635.739	52.28
636.087	62.28
636.435	72.28
636.783	65.28
637.131	53.28
637.479	70.28
637.826	55.28
638.174	61.28
638.522	56.28
638.869	103.28
639.217	52.28
639.564	59.28
639.912	59.28
640.259	58.28
640.607	56.28
640.954	71.28
641.301	65.28
641.649	49.28
641.996	57.28
642.343	67.28
642.69	59.28
643.037	62.28
643.384	80.28
643.731	56.28
644.078	80.28
644.425	48.28
644.772	53.28
645.119	42.28
645.465	44.28
645.812	55.28
646.159	56.28
646.505	58.28
646.852	67.28
647.198	43.28
647.545	55.28
647.891	65.28
648.237	54.28
648.584	56.28
648.93	53.28
649.276	54.28
649.622	55.28
649.969	65.28
650.315	56.28
650.661	58.28
651.007	52.28
651.352	61.28
651.698	39.28
652.044	43.28
652.39	57.28
652.736	48.28
653.081	44.28
653.427	52.28
653.773	50.28
654.118	50.28
654.464	39.28
654.809	53.28
655.154	35.28
655.5	46.28
655.845	39.28
656.19	42.28
656.536	37.28
656.881	45.28
657.226	33.28
657.571	91.28
657.916	31.28
658.261	33.28
658.606	38.28
658.951	28.28
659.295	35.28
659.64	29.28
659.985	39.28
660.33	27.28
660.674	36.28
661.019	39.28
661.363	33.28
661.708	40.28
662.052	26.28
662.397	31.28
662.741	37.28
663.085	31.28
663.429	44.28
663.774	71.28
664.118	26.28
664.462	35.28
664.806	26.28
665.15	44.28
665.494	26.28
665.838	27.28
666.182	32.28
666.526	34.28
666.869	26.28
667.213	28.28
667.557	35.28
667.9	40.28
668.244	37.28
668.587	45.28
668.931	28.28
669.274	29.28
669.618	32.28
669.961	30.28
670.304	28.28
670.648	33.28
670.991	30.28
671.334	17.28
671.677	25.28
672.02	24.28
672.363	29.28
672.706	32.28
673.049	29.28
673.392	19.28
673.735	29.28
674.077	19.28
674.42	28.28
674.763	21.28
675.105	23.28
675.448	33.28
675.79	18.28
676.133	31.28
676.475	22.28
676.818	21.28
677.16	17.28
677.502	35.28
677.844	47.28
678.187	19.28
678.529	50.28
678.871	33.28
679.213	26.28
679.555	24.28
679.897	24.28
680.239	24.28
680.58	23.28
680.922	26.28
681.264	37.28
681.606	26.28
681.947	24.28
682.289	26.28
682.631	60.28
682.972	21.28
683.313	30.28
683.655	24.28
683.996	23.28
684.338	17.28
684.679	18.28
685.02	18.28
685.361	30.28
685.702	27.28
686.043	28.28
686.384	21.28
686.725	19.28
687.066	42.28
687.407	23.28
687.748	20.28
688.089	44.28
688.43	19.28
688.77	63.28
689.111	25.28
689.451	30.28
689.792	29.28
690.132	25.28
690.473	23.28
690.813	22.28
691.154	32.28
691.494	32.28
691.834	27.28
692.174	22.28
692.515	23.28
692.855	22.28
693.195	29.28
693.535	26.28
693.875	22.28
694.215	20.28
694.554	28.28
694.894	22.28
695.234	27.28
695.574	27.28
695.913	26.28
696.253	24.28
696.593	30.28
696.932	28.28
697.272	22.28
697.611	20.28
697.95	32.28
698.29	22.28
698.629	19.28
698.968	14.28
699.307	20.28
699.647	21.28
699.986	37.28
700.325	21.28
700.664	19.28
701.003	25.28
701.341	18.28
701.68	18.28
702.019	13.28
702.358	14.28
702.697	24.28
703.035	31.28
703.374	25.28
703.712	37.28
704.051	13.28
704.389	26.28
704.728	17.28
705.066	18.28
705.404	28.28
705.743	17.28
706.081	23.28
706.419	15.28
706.757	26.28
707.095	29.28
707.433	28.28
707.771	18.28
708.109	13.28
708.447	23.28
708.785	26.28
709.123	28.28
709.46	22.28
709.798	20.28
710.136	29.28
710.473	28.28
710.811	32.28
711.148	33.28
711.486	22.28
711.823	15.28
712.16	24.28
712.498	20.28
712.835	35.28
713.172	20.28
713.509	32.28
713.846	78.28
714.183	33.28
714.52	17.28
714.857	17.28
715.194	20.28
715.531	18.28
715.868	25.28
716.205	16.28
716.541	25.28
716.878	32.28
717.215	22.28
717.551	27.28
717.888	18.28
718.224	81.28
718.561	22.28
718.897	18.28
719.233	17.28
719.57	23.28
719.906	16.28
720.242	15.28
720.578	14.28
720.914	19.28
721.25	19.28
721.586	15.28
721.922	15.28
722.258	28.28
722.594	15.28
722.929	18.28
723.265	19.28
723.601	26.28
723.937	35.28
724.272	11.28
724.608	24.28
724.943	12.28
725.279	11.28
725.614	11.28
725.949	22.28
726.285	18.28
726.62	43.28
726.955	12.28
727.29	16.28
727.625	12.28
727.96	28.28
728.295	35.28
728.63	19.28
728.965	6.28
729.3	13.28
729.635	63.28
729.97	15.28
730.304	8.28
730.639	17.28
730.974	13.28
731.308	26.28
731.643	6.28
731.977	24.28
732.311	24.28
732.646	16.28
732.98	16.28
733.314	9.28
733.649	85.28
733.983	22.28
734.317	42.28
734.651	16.28
734.985	17.28
735.319	13.28
735.653	17.28
735.987	29.28
736.321	31.28
736.654	10.28
736.988	21.28
737.322	33.28
737.655	21.28
737.989	21.28
738.322	15.28
738.656	15.28
738.989	20.28
739.323	21.28
739.656	20.28
739.989	31.28
740.323	13.28
740.656	10.28
740.989	11.28
741.322	17.28
741.655	23.28
741.988	34.28
742.321	32.28
742.654	15.28
742.987	13.28
743.319	20.28
743.652	26.28
743.985	22.28
744.317	8.28
744.65	10.28
744.983	23.28
745.315	10.28
745.648	17.28
745.98	15.28
746.312	12.28
746.645	15.28
746.977	27.28
747.309	22.28
747.641	20.28
747.973	28.28
748.305	12.28
748.637	5.28
748.969	13.28
749.301	24.28
749.633	9.28
749.965	4.28
750.297	17.28
750.628	23.28
750.96	20.28
751.292	33.28
751.623	18.28
751.955	15.28
752.286	24.28
752.618	14.28
752.949	8.28
753.28	25.28
753.611	6.28
753.943	13.28
754.274	17.28
754.605	15.28
754.936	23.28
755.267	11.28
755.598	24.28
755.929	16.28
756.26	14.28
756.591	133.28
756.921	17.28
757.252	18.28
757.583	17.28
757.913	13.28
758.244	12.28
758.574	23.28
758.905	15.28
759.235	29.28
759.566	8.28
759.896	27.28
760.226	22.28
760.557	5.28
760.887	1.28
761.217	13.28
761.547	21.28
761.877	22.28
762.207	30.28
762.537	15.28
762.867	20.28
763.197	41.28
763.526	10.28
763.856	27.28
764.186	13.28
764.515	6.28
764.845	4.28
765.175	19.28
765.504	14.28
765.833	8.28
766.163	13.28
766.492	9.28
766.821	12.28
767.151	22.28
767.48	10.28
767.809	20.28
768.138	12.28
768.467	8.28
768.796	7.28
769.125	12.28
769.454	10.28
769.783	23.28
770.112	20.28
770.44	17.28
770.769	10.28
771.098	15.28
771.426	17.28
771.755	15.28
772.083	13.28
772.412	15.28
772.74	14.28
773.069	80.28
773.397	23.28
773.725	5.28
774.053	42.28
774.381	28.28
774.71	27.28
775.038	7.28
775.366	7.28
775.693	10.28
776.021	21.28
776.349	10.28
776.677	13.28
777.005	11.28
777.332	12.28
777.66	2.28
777.988	18.28
778.315	27.28
778.643	19.28
778.97	11.28
779.298	9.28
779.625	10.28
779.952	11.28
780.28	22.28
780.607	12.28
780.934	22.28
781.261	17.28
781.588	10.28
781.915	23.28
782.242	21.28
782.569	32.28
782.896	17.28
783.223	14.28
783.549	27.28
783.876	16.28
784.203	8.28
784.529	35.28
784.856	23.28
785.182	18.28
785.509	30.28
785.835	13.28
786.162	14.28
786.488	21.28
786.814	4.28
787.14	21.28
787.466	15.28
787.793	21.28
788.119	11.28
788.445	12.28
788.771	25.28
789.097	13.28
789.422	17.28
789.748	9.28
790.074	9.28
790.4	31.28
790.725	17.28
791.051	76.28
791.376	17.28
791.702	21.28
792.027	16.28
792.353	17.28
792.678	19.28
793.004	33.28
793.329	21.28
793.654	15.28
793.979	15.28
794.304	10.28
794.629	22.28
794.954	9.28
795.279	20.28
795.604	26.28
795.929	18.28
796.254	4.28
796.579	6.28
796.903	72.28
797.228	9.28
797.553	35.28
797.877	18.28
798.202	25.28
798.526	12.28
798.851	11.28
799.175	23.28
799.499	15.28
799.823	14.28
800.148	6.28
800.472	8.28
800.796	15.28
801.12	22.28
801.444	21.28
801.768	12.28
802.092	19.28
802.416	20.28
802.74	25.28
803.063	13.28
803.387	24.28
803.711	91.28
804.034	24.28
804.358	15.28
804.681	28.28
805.005	19.28
