Data from USB2G147421__24__12-48-51-687.txt Node

Date: Tue Jun 28 12:48:51 UTC 2022
User: yes
Spectrometer: USB2G14742
Trigger mode: 4
Integration Time (sec): 2.000000E0
Scans to average: 1
Electric dark correction enabled: true
Nonlinearity correction enabled: false
Boxcar width: 0
XAxis mode: Wavelengths
Number of Pixels in Spectrum: 2048
>>>>>Begin Spectral Data<<<<<
339.471	-151.89
339.856	-5.89
340.241	-3.89
340.625	-2.89
341.01	3.11
341.395	38.11
341.779	12.11
342.163	9.11
342.548	9.11
342.932	19.11
343.317	7.11
343.701	5.11
344.085	13.11
344.469	5.11
344.853	1.11
345.238	6.11
345.622	12.11
346.006	24.11
346.39	3.11
346.774	11.11
347.157	14.11
347.541	15.11
347.925	2.11
348.309	6.11
348.693	34.11
349.076	7.11
349.46	24.11
349.843	14.11
350.227	16.11
350.61	69.11
350.994	14.11
351.377	11.11
351.761	32.11
352.144	28.11
352.527	3.11
352.91	8.11
353.294	12.11
353.677	14.11
354.06	13.11
354.443	89.11
354.826	9.11
355.209	5.11
355.592	7.11
355.975	7.11
356.358	20.11
356.74	13.11
357.123	7.11
357.506	12.11
357.889	11.11
358.271	17.11
358.654	7.11
359.036	12.11
359.419	11.11
359.801	13.11
360.184	7.11
360.566	11.11
360.948	28.11
361.331	10.11
361.713	4.11
362.095	17.11
362.477	9.11
362.859	13.11
363.241	21.11
363.623	11.11
364.005	18.11
364.387	24.11
364.769	9.11
365.151	7.11
365.533	34.11
365.915	24.11
366.296	10.11
366.678	59.11
367.06	6.11
367.441	17.11
367.823	26.11
368.204	11.11
368.586	13.11
368.967	17.11
369.348	22.11
369.73	26.11
370.111	10.11
370.492	6.11
370.873	17.11
371.255	43.11
371.636	10.11
372.017	16.11
372.398	23.11
372.779	20.11
373.16	12.11
373.54	7.11
373.921	10.11
374.302	12.11
374.683	15.11
375.064	13.11
375.444	12.11
375.825	14.11
376.205	14.11
376.586	22.11
376.966	10.11
377.347	18.11
377.727	15.11
378.108	13.11
378.488	16.11
378.868	6.11
379.248	12.11
379.629	13.11
380.009	43.11
380.389	10.11
380.769	15.11
381.149	6.11
381.529	25.11
381.909	26.11
382.289	11.11
382.668	93.11
383.048	12.11
383.428	8.11
383.808	9.11
384.187	14.11
384.567	21.11
384.946	7.11
385.326	17.11
385.705	18.11
386.085	10.11
386.464	25.11
386.844	13.11
387.223	9.11
387.602	11.11
387.981	13.11
388.361	11.11
388.74	18.11
389.119	6.11
389.498	25.11
389.877	14.11
390.256	6.11
390.635	23.11
391.013	16.11
391.392	5.11
391.771	49.11
392.15	22.11
392.528	20.11
392.907	5.11
393.286	15.11
393.664	25.11
394.043	10.11
394.421	16.11
394.8	13.11
395.178	9.11
395.556	18.11
395.935	19.11
396.313	13.11
396.691	21.11
397.069	9.11
397.447	5.11
397.825	11.11
398.203	17.11
398.581	17.11
398.959	11.11
399.337	14.11
399.715	76.11
400.093	10.11
400.471	10.11
400.848	10.11
401.226	13.11
401.604	14.11
401.981	11.11
402.359	15.11
402.736	14.11
403.114	45.11
403.491	22.11
403.868	20.11
404.246	54.11
404.623	28.11
405	13.11
405.377	10.11
405.755	16.11
406.132	4.11
406.509	8.11
406.886	13.11
407.263	22.11
407.64	9.11
408.017	17.11
408.393	15.11
408.77	15.11
409.147	8.11
409.524	14.11
409.9	19.11
410.277	23.11
410.653	15.11
411.03	21.11
411.406	12.11
411.783	31.11
412.159	21.11
412.536	20.11
412.912	7.11
413.288	24.11
413.664	6.11
414.04	7.11
414.417	22.11
414.793	14.11
415.169	13.11
415.545	26.11
415.921	18.11
416.297	34.11
416.672	11.11
417.048	9.11
417.424	12.11
417.8	41.11
418.175	10.11
418.551	8.11
418.927	10.11
419.302	76.11
419.678	26.11
420.053	10.11
420.429	18.11
420.804	16.11
421.179	6.11
421.554	16.11
421.93	13.11
422.305	66.11
422.68	23.11
423.055	16.11
423.43	9.11
423.805	11.11
424.18	9.11
424.555	14.11
424.93	16.11
425.305	12.11
425.68	13.11
426.054	12.11
426.429	17.11
426.804	22.11
427.178	18.11
427.553	11.11
427.927	68.11
428.302	15.11
428.676	10.11
429.051	11.11
429.425	15.11
429.799	20.11
430.174	14.11
430.548	9.11
430.922	23.11
431.296	13.11
431.67	20.11
432.044	25.11
432.418	18.11
432.792	9.11
433.166	13.11
433.54	15.11
433.914	20.11
434.287	15.11
434.661	14.11
435.035	15.11
435.408	13.11
435.782	18.11
436.156	19.11
436.529	61.11
436.903	9.11
437.276	10.11
437.649	29.11
438.023	55.11
438.396	15.11
438.769	14.11
439.142	14.11
439.515	23.11
439.889	19.11
440.262	24.11
440.635	30.11
441.008	28.11
441.38	28.11
441.753	23.11
442.126	14.11
442.499	20.11
442.872	81.11
443.244	62.11
443.617	12.11
443.99	24.11
444.362	23.11
444.735	11.11
445.107	20.11
445.48	49.11
445.852	12.11
446.224	17.11
446.597	19.11
446.969	27.11
447.341	32.11
447.713	27.11
448.085	16.11
448.457	25.11
448.829	21.11
449.201	32.11
449.573	24.11
449.945	26.11
450.317	18.11
450.689	24.11
451.061	20.11
451.432	16.11
451.804	28.11
452.176	45.11
452.547	28.11
452.919	19.11
453.29	25.11
453.662	24.11
454.033	18.11
454.404	39.11
454.776	22.11
455.147	21.11
455.518	28.11
455.889	24.11
456.26	23.11
456.631	34.11
457.002	25.11
457.373	27.11
457.744	34.11
458.115	26.11
458.486	27.11
458.857	18.11
459.228	23.11
459.598	14.11
459.969	19.11
460.34	33.11
460.71	12.11
461.081	17.11
461.451	29.11
461.822	28.11
462.192	13.11
462.563	16.11
462.933	17.11
463.303	21.11
463.673	30.11
464.044	28.11
464.414	20.11
464.784	25.11
465.154	24.11
465.524	23.11
465.894	22.11
466.264	19.11
466.634	25.11
467.003	21.11
467.373	19.11
467.743	30.11
468.113	33.11
468.482	22.11
468.852	26.11
469.221	27.11
469.591	18.11
469.96	32.11
470.33	10.11
470.699	73.11
471.068	15.11
471.438	20.11
471.807	32.11
472.176	28.11
472.545	40.11
472.914	12.11
473.283	24.11
473.652	25.11
474.021	37.11
474.39	21.11
474.759	29.11
475.128	16.11
475.497	12.11
475.865	13.11
476.234	21.11
476.603	18.11
476.971	20.11
477.34	15.11
477.708	31.11
478.077	18.11
478.445	21.11
478.814	15.11
479.182	23.11
479.55	20.11
479.919	16.11
480.287	20.11
480.655	34.11
481.023	9.11
481.391	18.11
481.759	19.11
482.127	25.11
482.495	14.11
482.863	24.11
483.231	13.11
483.598	21.11
483.966	31.11
484.334	21.11
484.701	25.11
485.069	20.11
485.437	49.11
485.804	16.11
486.172	17.11
486.539	20.11
486.906	15.11
487.274	29.11
487.641	28.11
488.008	27.11
488.375	37.11
488.743	28.11
489.11	19.11
489.477	14.11
489.844	18.11
490.211	18.11
490.578	18.11
490.945	32.11
491.311	29.11
491.678	27.11
492.045	40.11
492.412	15.11
492.778	28.11
493.145	31.11
493.511	23.11
493.878	25.11
494.244	17.11
494.611	24.11
494.977	24.11
495.344	17.11
495.71	61.11
496.076	18.11
496.442	28.11
496.808	18.11
497.175	33.11
497.541	15.11
497.907	30.11
498.273	44.11
498.638	48.11
499.004	22.11
499.37	31.11
499.736	56.11
500.102	18.11
500.467	33.11
500.833	25.11
501.199	39.11
501.564	26.11
501.93	29.11
502.295	39.11
502.661	27.11
503.026	34.11
503.391	24.11
503.757	33.11
504.122	24.11
504.487	31.11
504.852	46.11
505.217	35.11
505.582	27.11
505.947	38.11
506.312	32.11
506.677	33.11
507.042	31.11
507.407	44.11
507.772	63.11
508.136	53.11
508.501	42.11
508.866	39.11
509.23	59.11
509.595	36.11
509.959	38.11
510.324	33.11
510.688	50.11
511.053	51.11
511.417	96.11
511.781	36.11
512.146	36.11
512.51	62.11
512.874	80.11
513.238	36.11
513.602	35.11
513.966	41.11
514.33	44.11
514.694	37.11
515.058	34.11
515.422	53.11
515.785	58.11
516.149	46.11
516.513	53.11
516.876	47.11
517.24	44.11
517.604	39.11
517.967	52.11
518.331	42.11
518.694	47.11
519.057	55.11
519.421	49.11
519.784	48.11
520.147	60.11
520.51	72.11
520.873	49.11
521.237	57.11
521.6	57.11
521.963	50.11
522.326	51.11
522.688	38.11
523.051	47.11
523.414	52.11
523.777	130.11
524.14	41.11
524.502	53.11
524.865	54.11
525.228	60.11
525.59	56.11
525.953	62.11
526.315	53.11
526.677	53.11
527.04	87.11
527.402	53.11
527.764	52.11
528.127	52.11
528.489	65.11
528.851	49.11
529.213	56.11
529.575	53.11
529.937	72.11
530.299	52.11
530.661	61.11
531.023	60.11
531.384	55.11
531.746	54.11
532.108	58.11
532.47	57.11
532.831	59.11
533.193	56.11
533.554	70.11
533.916	59.11
534.277	67.11
534.639	61.11
535	52.11
535.361	66.11
535.723	75.11
536.084	67.11
536.445	84.11
536.806	133.11
537.167	94.11
537.528	66.11
537.889	73.11
538.25	75.11
538.611	72.11
538.972	68.11
539.333	73.11
539.693	92.11
540.054	259.11
540.415	63.11
540.775	62.11
541.136	75.11
541.496	60.11
541.857	74.11
542.217	65.11
542.578	74.11
542.938	95.11
543.298	78.11
543.658	78.11
544.019	75.11
544.379	76.11
544.739	76.11
545.099	72.11
545.459	65.11
545.819	80.11
546.179	71.11
546.539	103.11
546.899	77.11
547.258	91.11
547.618	79.11
547.978	90.11
548.337	92.11
548.697	72.11
549.056	100.11
549.416	82.11
549.775	83.11
550.135	85.11
550.494	74.11
550.854	104.11
551.213	91.11
551.572	90.11
551.931	87.11
552.29	84.11
552.649	89.11
553.008	78.11
553.367	118.11
553.726	102.11
554.085	81.11
554.444	190.11
554.803	81.11
555.162	95.11
555.52	83.11
555.879	95.11
556.238	90.11
556.596	82.11
556.955	91.11
557.313	93.11
557.672	97.11
558.03	88.11
558.388	94.11
558.747	108.11
559.105	87.11
559.463	95.11
559.821	86.11
560.179	103.11
560.537	87.11
560.896	87.11
561.253	92.11
561.611	85.11
561.969	92.11
562.327	96.11
562.685	97.11
563.043	94.11
563.4	85.11
563.758	101.11
564.116	103.11
564.473	85.11
564.831	83.11
565.188	95.11
565.546	130.11
565.903	101.11
566.26	97.11
566.617	105.11
566.975	113.11
567.332	107.11
567.689	95.11
568.046	99.11
568.403	109.11
568.76	96.11
569.117	106.11
569.474	105.11
569.831	97.11
570.188	111.11
570.544	107.11
570.901	105.11
571.258	129.11
571.614	96.11
571.971	110.11
572.328	103.11
572.684	104.11
573.04	120.11
573.397	101.11
573.753	116.11
574.109	108.11
574.466	116.11
574.822	104.11
575.178	112.11
575.534	110.11
575.89	125.11
576.246	110.11
576.602	116.11
576.958	114.11
577.314	112.11
577.67	105.11
578.026	107.11
578.381	118.11
578.737	102.11
579.093	113.11
579.448	118.11
579.804	146.11
580.159	121.11
580.515	98.11
580.87	116.11
581.226	108.11
581.581	128.11
581.936	126.11
582.291	108.11
582.647	112.11
583.002	134.11
583.357	114.11
583.712	117.11
584.067	105.11
584.422	117.11
584.777	112.11
585.131	108.11
585.486	108.11
585.841	100.11
586.196	135.11
586.55	108.11
586.905	115.11
587.26	109.11
587.614	110.11
587.969	134.11
588.323	117.11
588.677	125.11
589.032	115.11
589.386	116.11
589.74	141.11
590.094	115.11
590.449	126.11
590.803	150.11
591.157	116.11
591.511	142.11
591.865	124.11
592.219	129.11
592.573	110.11
592.926	108.11
593.28	105.11
593.634	135.11
593.988	105.11
594.341	100.11
594.695	115.11
595.048	109.11
595.402	107.11
595.755	101.11
596.109	124.11
596.462	124.11
596.815	102.11
597.169	121.11
597.522	107.11
597.875	158.11
598.228	120.11
598.581	106.11
598.934	138.11
599.287	106.11
599.64	108.11
599.993	102.11
600.346	100.11
600.698	106.11
601.051	103.11
601.404	104.11
601.757	101.11
602.109	118.11
602.462	110.11
602.814	91.11
603.167	105.11
603.519	106.11
603.871	105.11
604.224	100.11
604.576	90.11
604.928	127.11
605.28	98.11
605.633	98.11
605.985	113.11
606.337	103.11
606.689	98.11
607.041	119.11
607.392	93.11
607.744	101.11
608.096	99.11
608.448	99.11
608.8	90.11
609.151	92.11
609.503	96.11
609.854	107.11
610.206	123.11
610.557	93.11
610.909	94.11
611.26	108.11
611.612	91.11
611.963	85.11
612.314	110.11
612.665	94.11
613.016	87.11
613.367	89.11
613.719	105.11
614.07	90.11
614.42	84.11
614.771	76.11
615.122	103.11
615.473	87.11
615.824	86.11
616.174	98.11
616.525	89.11
616.876	81.11
617.226	89.11
617.577	82.11
617.927	81.11
618.278	84.11
618.628	150.11
618.979	91.11
619.329	79.11
619.679	98.11
620.029	93.11
620.379	82.11
620.729	90.11
621.08	85.11
621.43	109.11
621.779	104.11
622.129	75.11
622.479	82.11
622.829	74.11
623.179	73.11
623.529	70.11
623.878	79.11
624.228	72.11
624.577	69.11
624.927	66.11
625.276	65.11
625.626	90.11
625.975	91.11
626.325	78.11
626.674	115.11
627.023	67.11
627.372	74.11
627.722	99.11
628.071	88.11
628.42	86.11
628.769	109.11
629.118	73.11
629.467	75.11
629.815	78.11
630.164	61.11
630.513	74.11
630.862	108.11
631.21	79.11
631.559	67.11
631.908	58.11
632.256	60.11
632.605	59.11
632.953	64.11
633.302	58.11
633.65	77.11
633.998	135.11
634.346	75.11
634.695	58.11
635.043	57.11
635.391	86.11
635.739	57.11
636.087	71.11
636.435	76.11
636.783	67.11
637.131	53.11
637.479	73.11
637.826	63.11
638.174	62.11
638.522	53.11
638.869	101.11
639.217	57.11
639.564	57.11
639.912	52.11
640.259	55.11
640.607	62.11
640.954	72.11
641.301	71.11
641.649	51.11
641.996	62.11
642.343	64.11
642.69	56.11
643.037	64.11
643.384	81.11
643.731	57.11
644.078	85.11
644.425	45.11
644.772	54.11
645.119	43.11
645.465	52.11
645.812	53.11
646.159	65.11
646.505	53.11
646.852	71.11
647.198	42.11
647.545	54.11
647.891	63.11
648.237	54.11
648.584	55.11
648.93	45.11
649.276	52.11
649.622	55.11
649.969	67.11
650.315	58.11
650.661	57.11
651.007	52.11
651.352	65.11
651.698	40.11
652.044	41.11
652.39	57.11
652.736	48.11
653.081	42.11
653.427	44.11
653.773	55.11
654.118	42.11
654.464	46.11
654.809	52.11
655.154	33.11
655.5	47.11
655.845	39.11
656.19	40.11
656.536	36.11
656.881	44.11
657.226	30.11
657.571	86.11
657.916	38.11
658.261	37.11
658.606	41.11
658.951	28.11
659.295	26.11
659.64	28.11
659.985	36.11
660.33	27.11
660.674	36.11
661.019	42.11
661.363	39.11
661.708	37.11
662.052	28.11
662.397	29.11
662.741	32.11
663.085	30.11
663.429	39.11
663.774	67.11
664.118	18.11
664.462	33.11
664.806	27.11
665.15	43.11
665.494	28.11
665.838	32.11
666.182	36.11
666.526	35.11
666.869	21.11
667.213	29.11
667.557	35.11
667.9	31.11
668.244	40.11
668.587	42.11
668.931	26.11
669.274	23.11
669.618	26.11
669.961	22.11
670.304	24.11
670.648	32.11
670.991	20.11
671.334	16.11
671.677	18.11
672.02	19.11
672.363	20.11
672.706	26.11
673.049	37.11
673.392	22.11
673.735	28.11
674.077	20.11
674.42	26.11
674.763	29.11
675.105	29.11
675.448	44.11
675.79	19.11
676.133	29.11
676.475	21.11
676.818	16.11
677.16	19.11
677.502	38.11
677.844	45.11
678.187	18.11
678.529	49.11
678.871	30.11
679.213	22.11
679.555	27.11
679.897	23.11
680.239	29.11
680.58	23.11
680.922	29.11
681.264	35.11
681.606	25.11
681.947	23.11
682.289	25.11
682.631	58.11
682.972	25.11
683.313	25.11
683.655	27.11
683.996	22.11
684.338	18.11
684.679	16.11
685.02	21.11
685.361	36.11
685.702	30.11
686.043	31.11
686.384	23.11
686.725	20.11
687.066	32.11
687.407	20.11
687.748	18.11
688.089	40.11
688.43	19.11
688.77	60.11
689.111	26.11
689.451	23.11
689.792	28.11
690.132	18.11
690.473	25.11
690.813	18.11
691.154	29.11
691.494	28.11
691.834	23.11
692.174	21.11
692.515	21.11
692.855	16.11
693.195	32.11
693.535	31.11
693.875	19.11
694.215	23.11
694.554	29.11
694.894	23.11
695.234	27.11
695.574	26.11
695.913	32.11
696.253	25.11
696.593	26.11
696.932	33.11
697.272	23.11
697.611	23.11
697.95	35.11
698.29	23.11
698.629	23.11
698.968	13.11
699.307	18.11
699.647	23.11
699.986	35.11
700.325	27.11
700.664	14.11
701.003	22.11
701.341	17.11
701.68	14.11
702.019	15.11
702.358	15.11
702.697	23.11
703.035	28.11
703.374	18.11
703.712	34.11
704.051	12.11
704.389	26.11
704.728	15.11
705.066	16.11
705.404	27.11
705.743	21.11
706.081	21.11
706.419	15.11
706.757	26.11
707.095	37.11
707.433	25.11
707.771	21.11
708.109	9.11
708.447	22.11
708.785	24.11
709.123	26.11
709.46	22.11
709.798	15.11
710.136	26.11
710.473	21.11
710.811	26.11
711.148	26.11
711.486	27.11
711.823	21.11
712.16	20.11
712.498	19.11
712.835	40.11
713.172	19.11
713.509	29.11
713.846	81.11
714.183	36.11
714.52	17.11
714.857	19.11
715.194	20.11
715.531	18.11
715.868	33.11
716.205	12.11
716.541	28.11
716.878	30.11
717.215	23.11
717.551	24.11
717.888	29.11
718.224	83.11
718.561	25.11
718.897	17.11
719.233	15.11
719.57	17.11
719.906	12.11
720.242	20.11
720.578	17.11
720.914	20.11
721.25	18.11
721.586	12.11
721.922	13.11
722.258	33.11
722.594	15.11
722.929	27.11
723.265	17.11
723.601	25.11
723.937	37.11
724.272	11.11
724.608	22.11
724.943	12.11
725.279	8.11
725.614	12.11
725.949	24.11
726.285	18.11
726.62	42.11
726.955	11.11
727.29	21.11
727.625	12.11
727.96	24.11
728.295	32.11
728.63	22.11
728.965	12.11
729.3	16.11
729.635	61.11
729.97	18.11
730.304	12.11
730.639	21.11
730.974	13.11
731.308	31.11
731.643	9.11
731.977	29.11
732.311	27.11
732.646	18.11
732.98	18.11
733.314	5.11
733.649	88.11
733.983	22.11
734.317	39.11
734.651	20.11
734.985	14.11
735.319	15.11
735.653	15.11
735.987	27.11
736.321	34.11
736.654	8.11
736.988	27.11
737.322	30.11
737.655	24.11
737.989	26.11
738.322	20.11
738.656	14.11
738.989	16.11
739.323	19.11
739.656	20.11
739.989	34.11
740.323	13.11
740.656	14.11
740.989	11.11
741.322	15.11
741.655	21.11
741.988	37.11
742.321	28.11
742.654	12.11
742.987	15.11
743.319	17.11
743.652	24.11
743.985	30.11
744.317	14.11
744.65	12.11
744.983	28.11
745.315	10.11
745.648	17.11
745.98	16.11
746.312	14.11
746.645	11.11
746.977	28.11
747.309	20.11
747.641	19.11
747.973	24.11
748.305	10.11
748.637	16.11
748.969	12.11
749.301	16.11
749.633	14.11
749.965	9.11
750.297	18.11
750.628	33.11
750.96	19.11
751.292	31.11
751.623	14.11
751.955	17.11
752.286	24.11
752.618	10.11
752.949	8.11
753.28	24.11
753.611	8.11
753.943	17.11
754.274	26.11
754.605	19.11
754.936	20.11
755.267	10.11
755.598	25.11
755.929	14.11
756.26	16.11
756.591	135.11
756.921	16.11
757.252	20.11
757.583	13.11
757.913	13.11
758.244	13.11
758.574	20.11
758.905	13.11
759.235	30.11
759.566	8.11
759.896	30.11
760.226	21.11
760.557	6.11
760.887	4.11
761.217	18.11
761.547	29.11
761.877	16.11
762.207	27.11
762.537	18.11
762.867	15.11
763.197	48.11
763.526	11.11
763.856	26.11
764.186	21.11
764.515	3.11
764.845	3.11
765.175	16.11
765.504	14.11
765.833	3.11
766.163	14.11
766.492	14.11
766.821	11.11
767.151	20.11
767.48	13.11
767.809	18.11
768.138	16.11
768.467	9.11
768.796	11.11
769.125	17.11
769.454	5.11
769.783	16.11
770.112	15.11
770.44	21.11
770.769	10.11
771.098	22.11
771.426	11.11
771.755	7.11
772.083	9.11
772.412	16.11
772.74	6.11
773.069	82.11
773.397	23.11
773.725	8.11
774.053	53.11
774.381	23.11
774.71	24.11
775.038	2.11
775.366	6.11
775.693	8.11
776.021	16.11
776.349	8.11
776.677	9.11
777.005	9.11
777.332	13.11
777.66	4.11
777.988	17.11
778.315	25.11
778.643	18.11
778.97	10.11
779.298	8.11
779.625	11.11
779.952	15.11
780.28	26.11
780.607	19.11
780.934	24.11
781.261	19.11
781.588	14.11
781.915	30.11
782.242	22.11
782.569	32.11
782.896	23.11
783.223	14.11
783.549	23.11
783.876	17.11
784.203	11.11
784.529	39.11
784.856	19.11
785.182	15.11
785.509	28.11
785.835	16.11
786.162	12.11
786.488	15.11
786.814	6.11
787.14	22.11
787.466	17.11
787.793	25.11
788.119	6.11
788.445	9.11
788.771	26.11
789.097	15.11
789.422	19.11
789.748	16.11
790.074	12.11
790.4	30.11
790.725	20.11
791.051	80.11
791.376	17.11
791.702	20.11
792.027	16.11
792.353	10.11
792.678	20.11
793.004	30.11
793.329	26.11
793.654	12.11
793.979	9.11
794.304	8.11
794.629	22.11
794.954	7.11
795.279	14.11
795.604	26.11
795.929	19.11
796.254	12.11
796.579	2.11
796.903	68.11
797.228	10.11
797.553	33.11
797.877	12.11
798.202	23.11
798.526	14.11
798.851	9.11
799.175	24.11
799.499	15.11
799.823	17.11
800.148	7.11
800.472	2.11
800.796	7.11
801.12	19.11
801.444	17.11
801.768	10.11
802.092	15.11
802.416	15.11
802.74	26.11
803.063	16.11
803.387	24.11
803.711	92.11
804.034	17.11
804.358	18.11
804.681	20.11
805.005	24.11
805.328	11.11
