Data from USB2G147421__64__13-05-59-642.txt Node

Date: Tue Jun 28 13:05:59 UTC 2022
User: yes
Spectrometer: USB2G14742
Trigger mode: 4
Integration Time (sec): 2.000000E0
Scans to average: 1
Electric dark correction enabled: true
Nonlinearity correction enabled: false
Boxcar width: 0
XAxis mode: Wavelengths
Number of Pixels in Spectrum: 2048
>>>>>Begin Spectral Data<<<<<
339.471	-153.44
339.856	-3.44
340.241	-0.44
340.625	-0.44
341.01	-3.44
341.395	35.56
341.779	14.56
342.163	8.56
342.548	12.56
342.932	13.56
343.317	6.56
343.701	8.56
344.085	8.56
344.469	7.56
344.853	7.56
345.238	2.56
345.622	10.56
346.006	24.56
346.39	5.56
346.774	7.56
347.157	15.56
347.541	8.56
347.925	2.56
348.309	9.56
348.693	25.56
349.076	8.56
349.46	22.56
349.843	13.56
350.227	10.56
350.61	62.56
350.994	17.56
351.377	16.56
351.761	35.56
352.144	19.56
352.527	8.56
352.91	8.56
353.294	4.56
353.677	16.56
354.06	16.56
354.443	89.56
354.826	3.56
355.209	2.56
355.592	5.56
355.975	9.56
356.358	21.56
356.74	15.56
357.123	15.56
357.506	7.56
357.889	10.56
358.271	14.56
358.654	3.56
359.036	14.56
359.419	7.56
359.801	9.56
360.184	14.56
360.566	10.56
360.948	28.56
361.331	6.56
361.713	6.56
362.095	19.56
362.477	8.56
362.859	8.56
363.241	9.56
363.623	8.56
364.005	16.56
364.387	21.56
364.769	10.56
365.151	14.56
365.533	34.56
365.915	30.56
366.296	13.56
366.678	54.56
367.06	8.56
367.441	17.56
367.823	27.56
368.204	9.56
368.586	8.56
368.967	15.56
369.348	24.56
369.73	12.56
370.111	11.56
370.492	4.56
370.873	12.56
371.255	40.56
371.636	12.56
372.017	17.56
372.398	24.56
372.779	18.56
373.16	9.56
373.54	6.56
373.921	14.56
374.302	6.56
374.683	15.56
375.064	9.56
375.444	7.56
375.825	17.56
376.205	10.56
376.586	25.56
376.966	8.56
377.347	17.56
377.727	13.56
378.108	5.56
378.488	10.56
378.868	6.56
379.248	19.56
379.629	6.56
380.009	39.56
380.389	7.56
380.769	18.56
381.149	8.56
381.529	27.56
381.909	26.56
382.289	10.56
382.668	94.56
383.048	9.56
383.428	5.56
383.808	5.56
384.187	11.56
384.567	14.56
384.946	7.56
385.326	14.56
385.705	23.56
386.085	9.56
386.464	19.56
386.844	15.56
387.223	14.56
387.602	10.56
387.981	15.56
388.361	10.56
388.74	16.56
389.119	7.56
389.498	14.56
389.877	18.56
390.256	10.56
390.635	21.56
391.013	22.56
391.392	7.56
391.771	50.56
392.15	18.56
392.528	14.56
392.907	10.56
393.286	21.56
393.664	23.56
394.043	7.56
394.421	12.56
394.8	16.56
395.178	7.56
395.556	14.56
395.935	14.56
396.313	10.56
396.691	20.56
397.069	7.56
397.447	3.56
397.825	14.56
398.203	7.56
398.581	17.56
398.959	8.56
399.337	15.56
399.715	75.56
400.093	2.56
400.471	5.56
400.848	4.56
401.226	11.56
401.604	13.56
401.981	14.56
402.359	16.56
402.736	12.56
403.114	49.56
403.491	21.56
403.868	20.56
404.246	50.56
404.623	25.56
405	13.56
405.377	10.56
405.755	23.56
406.132	6.56
406.509	8.56
406.886	16.56
407.263	17.56
407.64	8.56
408.017	19.56
408.393	18.56
408.77	21.56
409.147	9.56
409.524	14.56
409.9	18.56
410.277	22.56
410.653	17.56
411.03	21.56
411.406	5.56
411.783	39.56
412.159	16.56
412.536	19.56
412.912	8.56
413.288	24.56
413.664	6.56
414.04	4.56
414.417	21.56
414.793	13.56
415.169	8.56
415.545	23.56
415.921	18.56
416.297	33.56
416.672	8.56
417.048	11.56
417.424	11.56
417.8	42.56
418.175	13.56
418.551	8.56
418.927	4.56
419.302	73.56
419.678	23.56
420.053	12.56
420.429	19.56
420.804	15.56
421.179	12.56
421.554	11.56
421.93	8.56
422.305	63.56
422.68	17.56
423.055	10.56
423.43	11.56
423.805	6.56
424.18	9.56
424.555	16.56
424.93	15.56
425.305	11.56
425.68	14.56
426.054	9.56
426.429	15.56
426.804	13.56
427.178	23.56
427.553	12.56
427.927	66.56
428.302	13.56
428.676	14.56
429.051	15.56
429.425	13.56
429.799	22.56
430.174	15.56
430.548	10.56
430.922	24.56
431.296	10.56
431.67	26.56
432.044	29.56
432.418	10.56
432.792	8.56
433.166	8.56
433.54	24.56
433.914	22.56
434.287	17.56
434.661	8.56
435.035	14.56
435.408	13.56
435.782	18.56
436.156	24.56
436.529	56.56
436.903	8.56
437.276	5.56
437.649	33.56
438.023	54.56
438.396	13.56
438.769	17.56
439.142	16.56
439.515	23.56
439.889	21.56
440.262	24.56
440.635	33.56
441.008	29.56
441.38	23.56
441.753	20.56
442.126	14.56
442.499	15.56
442.872	70.56
443.244	52.56
443.617	10.56
443.99	29.56
444.362	22.56
444.735	12.56
445.107	18.56
445.48	49.56
445.852	10.56
446.224	18.56
446.597	20.56
446.969	22.56
447.341	29.56
447.713	25.56
448.085	19.56
448.457	21.56
448.829	15.56
449.201	25.56
449.573	30.56
449.945	26.56
450.317	16.56
450.689	27.56
451.061	27.56
451.432	16.56
451.804	28.56
452.176	41.56
452.547	21.56
452.919	21.56
453.29	27.56
453.662	26.56
454.033	21.56
454.404	38.56
454.776	22.56
455.147	16.56
455.518	25.56
455.889	30.56
456.26	24.56
456.631	28.56
457.002	21.56
457.373	20.56
457.744	34.56
458.115	23.56
458.486	23.56
458.857	19.56
459.228	25.56
459.598	21.56
459.969	15.56
460.34	33.56
460.71	20.56
461.081	18.56
461.451	23.56
461.822	20.56
462.192	14.56
462.563	18.56
462.933	21.56
463.303	23.56
463.673	34.56
464.044	23.56
464.414	25.56
464.784	19.56
465.154	17.56
465.524	19.56
465.894	23.56
466.264	11.56
466.634	19.56
467.003	22.56
467.373	16.56
467.743	31.56
468.113	28.56
468.482	27.56
468.852	23.56
469.221	27.56
469.591	23.56
469.96	29.56
470.33	13.56
470.699	75.56
471.068	10.56
471.438	21.56
471.807	30.56
472.176	27.56
472.545	36.56
472.914	6.56
473.283	25.56
473.652	21.56
474.021	38.56
474.39	26.56
474.759	25.56
475.128	18.56
475.497	10.56
475.865	13.56
476.234	22.56
476.603	7.56
476.971	15.56
477.34	14.56
477.708	31.56
478.077	18.56
478.445	19.56
478.814	19.56
479.182	19.56
479.55	17.56
479.919	15.56
480.287	15.56
480.655	31.56
481.023	8.56
481.391	23.56
481.759	17.56
482.127	21.56
482.495	21.56
482.863	19.56
483.231	11.56
483.598	19.56
483.966	22.56
484.334	20.56
484.701	27.56
485.069	24.56
485.437	42.56
485.804	15.56
486.172	25.56
486.539	23.56
486.906	17.56
487.274	29.56
487.641	19.56
488.008	26.56
488.375	35.56
488.743	28.56
489.11	18.56
489.477	11.56
489.844	17.56
490.211	18.56
490.578	18.56
490.945	24.56
491.311	26.56
491.678	25.56
492.045	37.56
492.412	16.56
492.778	22.56
493.145	38.56
493.511	22.56
493.878	27.56
494.244	18.56
494.611	23.56
494.977	22.56
495.344	15.56
495.71	66.56
496.076	16.56
496.442	32.56
496.808	22.56
497.175	31.56
497.541	14.56
497.907	28.56
498.273	41.56
498.638	43.56
499.004	22.56
499.37	18.56
499.736	61.56
500.102	19.56
500.467	33.56
500.833	23.56
501.199	32.56
501.564	26.56
501.93	30.56
502.295	36.56
502.661	28.56
503.026	33.56
503.391	31.56
503.757	36.56
504.122	24.56
504.487	27.56
504.852	36.56
505.217	31.56
505.582	26.56
505.947	33.56
506.312	31.56
506.677	29.56
507.042	30.56
507.407	39.56
507.772	52.56
508.136	52.56
508.501	46.56
508.866	29.56
509.23	52.56
509.595	38.56
509.959	35.56
510.324	32.56
510.688	41.56
511.053	42.56
511.417	91.56
511.781	35.56
512.146	32.56
512.51	58.56
512.874	81.56
513.238	37.56
513.602	36.56
513.966	45.56
514.33	39.56
514.694	33.56
515.058	38.56
515.422	52.56
515.785	58.56
516.149	41.56
516.513	56.56
516.876	44.56
517.24	42.56
517.604	43.56
517.967	51.56
518.331	39.56
518.694	44.56
519.057	51.56
519.421	47.56
519.784	50.56
520.147	64.56
520.51	68.56
520.873	44.56
521.237	53.56
521.6	48.56
521.963	42.56
522.326	46.56
522.688	43.56
523.051	51.56
523.414	56.56
523.777	124.56
524.14	51.56
524.502	55.56
524.865	52.56
525.228	58.56
525.59	59.56
525.953	65.56
526.315	49.56
526.677	52.56
527.04	90.56
527.402	53.56
527.764	54.56
528.127	47.56
528.489	61.56
528.851	53.56
529.213	48.56
529.575	49.56
529.937	71.56
530.299	44.56
530.661	52.56
531.023	51.56
531.384	55.56
531.746	57.56
532.108	57.56
532.47	54.56
532.831	60.56
533.193	54.56
533.554	63.56
533.916	50.56
534.277	63.56
534.639	50.56
535	47.56
535.361	63.56
535.723	72.56
536.084	66.56
536.445	82.56
536.806	123.56
537.167	96.56
537.528	65.56
537.889	77.56
538.25	67.56
538.611	67.56
538.972	60.56
539.333	67.56
539.693	84.56
540.054	104.56
540.415	61.56
540.775	55.56
541.136	59.56
541.496	59.56
541.857	80.56
542.217	62.56
542.578	61.56
542.938	90.56
543.298	73.56
543.658	72.56
544.019	78.56
544.379	70.56
544.739	68.56
545.099	72.56
545.459	73.56
545.819	74.56
546.179	64.56
546.539	104.56
546.899	75.56
547.258	88.56
547.618	80.56
547.978	91.56
548.337	81.56
548.697	70.56
549.056	95.56
549.416	77.56
549.775	74.56
550.135	77.56
550.494	69.56
550.854	99.56
551.213	80.56
551.572	84.56
551.931	80.56
552.29	79.56
552.649	81.56
553.008	83.56
553.367	115.56
553.726	101.56
554.085	75.56
554.444	174.56
554.803	79.56
555.162	99.56
555.52	82.56
555.879	93.56
556.238	84.56
556.596	74.56
556.955	88.56
557.313	92.56
557.672	92.56
558.03	82.56
558.388	87.56
558.747	103.56
559.105	89.56
559.463	90.56
559.821	81.56
560.179	91.56
560.537	94.56
560.896	86.56
561.253	81.56
561.611	82.56
561.969	95.56
562.327	91.56
562.685	98.56
563.043	88.56
563.4	91.56
563.758	95.56
564.116	100.56
564.473	91.56
564.831	81.56
565.188	89.56
565.546	127.56
565.903	99.56
566.26	93.56
566.617	89.56
566.975	107.56
567.332	97.56
567.689	87.56
568.046	92.56
568.403	105.56
568.76	89.56
569.117	101.56
569.474	102.56
569.831	94.56
570.188	104.56
570.544	103.56
570.901	101.56
571.258	129.56
571.614	96.56
571.971	102.56
572.328	91.56
572.684	106.56
573.04	124.56
573.397	100.56
573.753	120.56
574.109	104.56
574.466	113.56
574.822	94.56
575.178	109.56
575.534	99.56
575.89	116.56
576.246	112.56
576.602	117.56
576.958	112.56
577.314	108.56
577.67	95.56
578.026	105.56
578.381	108.56
578.737	108.56
579.093	115.56
579.448	118.56
579.804	134.56
580.159	109.56
580.515	103.56
580.87	108.56
581.226	100.56
581.581	120.56
581.936	116.56
582.291	105.56
582.647	109.56
583.002	117.56
583.357	107.56
583.712	107.56
584.067	108.56
584.422	103.56
584.777	108.56
585.131	108.56
585.486	99.56
585.841	107.56
586.196	129.56
586.55	109.56
586.905	114.56
587.26	105.56
587.614	103.56
587.969	123.56
588.323	113.56
588.677	118.56
589.032	115.56
589.386	117.56
589.74	133.56
590.094	118.56
590.449	129.56
590.803	145.56
591.157	112.56
591.511	141.56
591.865	119.56
592.219	126.56
592.573	109.56
592.926	100.56
593.28	101.56
593.634	135.56
593.988	103.56
594.341	101.56
594.695	118.56
595.048	105.56
595.402	100.56
595.755	93.56
596.109	114.56
596.462	122.56
596.815	106.56
597.169	122.56
597.522	103.56
597.875	149.56
598.228	120.56
598.581	96.56
598.934	134.56
599.287	94.56
599.64	114.56
599.993	112.56
600.346	96.56
600.698	102.56
601.051	103.56
601.404	106.56
601.757	97.56
602.109	113.56
602.462	105.56
602.814	90.56
603.167	103.56
603.519	97.56
603.871	112.56
604.224	104.56
604.576	98.56
604.928	115.56
605.28	106.56
605.633	101.56
605.985	111.56
606.337	100.56
606.689	95.56
607.041	125.56
607.392	94.56
607.744	101.56
608.096	97.56
608.448	91.56
608.8	88.56
609.151	90.56
609.503	86.56
609.854	87.56
610.206	119.56
610.557	101.56
610.909	85.56
611.26	105.56
611.612	100.56
611.963	81.56
612.314	108.56
612.665	93.56
613.016	90.56
613.367	83.56
613.719	98.56
614.07	78.56
614.42	79.56
614.771	73.56
615.122	89.56
615.473	89.56
615.824	94.56
616.174	100.56
616.525	81.56
616.876	79.56
617.226	83.56
617.577	80.56
617.927	82.56
618.278	83.56
618.628	144.56
618.979	89.56
619.329	75.56
619.679	90.56
620.029	84.56
620.379	78.56
620.729	95.56
621.08	85.56
621.43	95.56
621.779	97.56
622.129	75.56
622.479	84.56
622.829	80.56
623.179	79.56
623.529	71.56
623.878	76.56
624.228	72.56
624.577	69.56
624.927	62.56
625.276	72.56
625.626	85.56
625.975	79.56
626.325	62.56
626.674	111.56
627.023	60.56
627.372	68.56
627.722	99.56
628.071	87.56
628.42	73.56
628.769	116.56
629.118	69.56
629.467	75.56
629.815	75.56
630.164	69.56
630.513	74.56
630.862	105.56
631.21	66.56
631.559	61.56
631.908	58.56
632.256	62.56
632.605	56.56
632.953	55.56
633.302	55.56
633.65	79.56
633.998	127.56
634.346	77.56
634.695	58.56
635.043	56.56
635.391	74.56
635.739	52.56
636.087	61.56
636.435	72.56
636.783	65.56
637.131	50.56
637.479	68.56
637.826	60.56
638.174	56.56
638.522	59.56
638.869	102.56
639.217	52.56
639.564	59.56
639.912	48.56
640.259	54.56
640.607	59.56
640.954	67.56
641.301	57.56
641.649	48.56
641.996	50.56
642.343	60.56
642.69	58.56
643.037	59.56
643.384	79.56
643.731	46.56
644.078	76.56
644.425	47.56
644.772	49.56
645.119	51.56
645.465	43.56
645.812	54.56
646.159	60.56
646.505	48.56
646.852	65.56
647.198	42.56
647.545	48.56
647.891	56.56
648.237	53.56
648.584	62.56
648.93	38.56
649.276	54.56
649.622	62.56
649.969	61.56
650.315	45.56
650.661	59.56
651.007	52.56
651.352	59.56
651.698	30.56
652.044	40.56
652.39	53.56
652.736	45.56
653.081	37.56
653.427	44.56
653.773	52.56
654.118	42.56
654.464	43.56
654.809	50.56
655.154	39.56
655.5	42.56
655.845	35.56
656.19	42.56
656.536	39.56
656.881	39.56
657.226	29.56
657.571	94.56
657.916	34.56
658.261	37.56
658.606	43.56
658.951	24.56
659.295	32.56
659.64	24.56
659.985	36.56
660.33	32.56
660.674	34.56
661.019	33.56
661.363	34.56
661.708	44.56
662.052	20.56
662.397	22.56
662.741	34.56
663.085	33.56
663.429	33.56
663.774	70.56
664.118	20.56
664.462	29.56
664.806	24.56
665.15	47.56
665.494	21.56
665.838	26.56
666.182	33.56
666.526	38.56
666.869	26.56
667.213	31.56
667.557	29.56
667.9	43.56
668.244	30.56
668.587	38.56
668.931	20.56
669.274	28.56
669.618	24.56
669.961	30.56
670.304	25.56
670.648	21.56
670.991	20.56
671.334	13.56
671.677	18.56
672.02	19.56
672.363	17.56
672.706	23.56
673.049	37.56
673.392	24.56
673.735	21.56
674.077	25.56
674.42	30.56
674.763	20.56
675.105	25.56
675.448	37.56
675.79	15.56
676.133	28.56
676.475	21.56
676.818	17.56
677.16	12.56
677.502	32.56
677.844	43.56
678.187	17.56
678.529	52.56
678.871	33.56
679.213	25.56
679.555	27.56
679.897	23.56
680.239	24.56
680.58	22.56
680.922	31.56
681.264	38.56
681.606	19.56
681.947	25.56
682.289	25.56
682.631	57.56
682.972	20.56
683.313	27.56
683.655	28.56
683.996	18.56
684.338	25.56
684.679	17.56
685.02	18.56
685.361	27.56
685.702	23.56
686.043	28.56
686.384	16.56
686.725	21.56
687.066	35.56
687.407	18.56
687.748	22.56
688.089	41.56
688.43	19.56
688.77	56.56
689.111	33.56
689.451	22.56
689.792	22.56
690.132	24.56
690.473	25.56
690.813	21.56
691.154	24.56
691.494	24.56
691.834	24.56
692.174	19.56
692.515	20.56
692.855	24.56
693.195	28.56
693.535	25.56
693.875	18.56
694.215	23.56
694.554	31.56
694.894	24.56
695.234	27.56
695.574	24.56
695.913	30.56
696.253	22.56
696.593	32.56
696.932	23.56
697.272	25.56
697.611	20.56
697.95	31.56
698.29	17.56
698.629	23.56
698.968	14.56
699.307	21.56
699.647	23.56
699.986	37.56
700.325	24.56
700.664	13.56
701.003	22.56
701.341	19.56
701.68	16.56
702.019	10.56
702.358	13.56
702.697	24.56
703.035	31.56
703.374	16.56
703.712	31.56
704.051	11.56
704.389	28.56
704.728	19.56
705.066	15.56
705.404	22.56
705.743	24.56
706.081	22.56
706.419	13.56
706.757	22.56
707.095	36.56
707.433	26.56
707.771	20.56
708.109	11.56
708.447	25.56
708.785	29.56
709.123	25.56
709.46	15.56
709.798	11.56
710.136	27.56
710.473	19.56
710.811	27.56
711.148	34.56
711.486	20.56
711.823	12.56
712.16	16.56
712.498	15.56
712.835	31.56
713.172	16.56
713.509	27.56
713.846	72.56
714.183	28.56
714.52	15.56
714.857	17.56
715.194	16.56
715.531	19.56
715.868	28.56
716.205	16.56
716.541	19.56
716.878	35.56
717.215	15.56
717.551	26.56
717.888	20.56
718.224	71.56
718.561	28.56
718.897	17.56
719.233	14.56
719.57	24.56
719.906	11.56
720.242	15.56
720.578	17.56
720.914	16.56
721.25	21.56
721.586	8.56
721.922	12.56
722.258	23.56
722.594	15.56
722.929	23.56
723.265	17.56
723.601	26.56
723.937	34.56
724.272	13.56
724.608	20.56
724.943	13.56
725.279	6.56
725.614	18.56
725.949	21.56
726.285	19.56
726.62	31.56
726.955	5.56
727.29	14.56
727.625	11.56
727.96	18.56
728.295	31.56
728.63	24.56
728.965	5.56
729.3	14.56
729.635	61.56
729.97	20.56
730.304	12.56
730.639	19.56
730.974	14.56
731.308	28.56
731.643	9.56
731.977	22.56
732.311	27.56
732.646	14.56
732.98	19.56
733.314	4.56
733.649	19.56
733.983	19.56
734.317	44.56
734.651	17.56
734.985	14.56
735.319	18.56
735.653	13.56
735.987	25.56
736.321	32.56
736.654	7.56
736.988	23.56
737.322	29.56
737.655	22.56
737.989	22.56
738.322	18.56
738.656	11.56
738.989	19.56
739.323	17.56
739.656	20.56
739.989	27.56
740.323	10.56
740.656	13.56
740.989	7.56
741.322	17.56
741.655	23.56
741.988	30.56
742.321	27.56
742.654	13.56
742.987	13.56
743.319	18.56
743.652	24.56
743.985	30.56
744.317	12.56
744.65	7.56
744.983	20.56
745.315	6.56
745.648	17.56
745.98	16.56
746.312	15.56
746.645	12.56
746.977	28.56
747.309	17.56
747.641	11.56
747.973	29.56
748.305	6.56
748.637	8.56
748.969	13.56
749.301	26.56
749.633	12.56
749.965	3.56
750.297	17.56
750.628	23.56
750.96	23.56
751.292	28.56
751.623	13.56
751.955	16.56
752.286	25.56
752.618	10.56
752.949	10.56
753.28	30.56
753.611	7.56
753.943	16.56
754.274	20.56
754.605	15.56
754.936	19.56
755.267	9.56
755.598	25.56
755.929	10.56
756.26	12.56
756.591	140.56
756.921	18.56
757.252	20.56
757.583	14.56
757.913	21.56
758.244	12.56
758.574	16.56
758.905	13.56
759.235	20.56
759.566	3.56
759.896	31.56
760.226	21.56
760.557	8.56
760.887	7.56
761.217	12.56
761.547	21.56
761.877	14.56
762.207	29.56
762.537	11.56
762.867	15.56
763.197	47.56
763.526	14.56
763.856	21.56
764.186	20.56
764.515	6.56
764.845	3.56
765.175	14.56
765.504	13.56
765.833	5.56
766.163	14.56
766.492	8.56
766.821	12.56
767.151	21.56
767.48	11.56
767.809	22.56
768.138	12.56
768.467	10.56
768.796	11.56
769.125	11.56
769.454	7.56
769.783	18.56
770.112	9.56
770.44	20.56
770.769	6.56
771.098	19.56
771.426	17.56
771.755	8.56
772.083	8.56
772.412	12.56
772.74	11.56
773.069	79.56
773.397	21.56
773.725	5.56
774.053	50.56
774.381	20.56
774.71	29.56
775.038	3.56
775.366	6.56
775.693	12.56
776.021	22.56
776.349	13.56
776.677	6.56
777.005	14.56
777.332	15.56
777.66	4.56
777.988	12.56
778.315	21.56
778.643	17.56
778.97	8.56
779.298	12.56
779.625	10.56
779.952	18.56
780.28	20.56
780.607	18.56
780.934	20.56
781.261	21.56
781.588	9.56
781.915	25.56
782.242	14.56
782.569	32.56
782.896	21.56
783.223	18.56
783.549	24.56
783.876	13.56
784.203	14.56
784.529	38.56
784.856	20.56
785.182	19.56
785.509	26.56
785.835	19.56
786.162	10.56
786.488	10.56
786.814	9.56
787.14	20.56
787.466	18.56
787.793	23.56
788.119	9.56
788.445	12.56
788.771	24.56
789.097	19.56
789.422	17.56
789.748	11.56
790.074	11.56
790.4	26.56
790.725	15.56
791.051	71.56
791.376	12.56
791.702	19.56
792.027	17.56
792.353	16.56
792.678	22.56
793.004	28.56
793.329	20.56
793.654	9.56
793.979	13.56
794.304	10.56
794.629	16.56
794.954	10.56
795.279	11.56
795.604	23.56
795.929	17.56
796.254	14.56
796.579	5.56
796.903	65.56
797.228	7.56
797.553	30.56
797.877	7.56
798.202	23.56
798.526	11.56
798.851	6.56
799.175	23.56
799.499	13.56
799.823	8.56
800.148	15.56
800.472	12.56
800.796	14.56
801.12	20.56
801.444	15.56
801.768	8.56
802.092	18.56
802.416	13.56
802.74	22.56
803.063	16.56
803.387	19.56
803.711	89.56
804.034	26.56
804.358	13.56
804.681	24.56
805.005	16.56
805.328	12.56
805.652	9.56
805.975	13.56
806.298	23.56
