Data from USB2G147421__38__12-53-46-559.txt Node

Date: Tue Jun 28 12:53:46 UTC 2022
User: yes
Spectrometer: USB2G14742
Trigger mode: 4
Integration Time (sec): 2.000000E0
Scans to average: 1
Electric dark correction enabled: true
Nonlinearity correction enabled: false
Boxcar width: 0
XAxis mode: Wavelengths
Number of Pixels in Spectrum: 2048
>>>>>Begin Spectral Data<<<<<
339.471	-152.11
339.856	-4.11
340.241	-2.11
340.625	-3.11
341.01	-2.11
341.395	38.89
341.779	4.89
342.163	7.89
342.548	11.89
342.932	14.89
343.317	4.89
343.701	14.89
344.085	7.89
344.469	2.89
344.853	5.89
345.238	2.89
345.622	13.89
346.006	31.89
346.39	1.89
346.774	8.89
347.157	15.89
347.541	9.89
347.925	4.89
348.309	13.89
348.693	28.89
349.076	9.89
349.46	24.89
349.843	14.89
350.227	5.89
350.61	67.89
350.994	21.89
351.377	11.89
351.761	31.89
352.144	24.89
352.527	4.89
352.91	8.89
353.294	14.89
353.677	15.89
354.06	16.89
354.443	88.89
354.826	3.89
355.209	8.89
355.592	6.89
355.975	7.89
356.358	15.89
356.74	16.89
357.123	11.89
357.506	11.89
357.889	12.89
358.271	18.89
358.654	10.89
359.036	14.89
359.419	6.89
359.801	17.89
360.184	11.89
360.566	11.89
360.948	26.89
361.331	11.89
361.713	5.89
362.095	16.89
362.477	5.89
362.859	13.89
363.241	18.89
363.623	13.89
364.005	19.89
364.387	20.89
364.769	15.89
365.151	15.89
365.533	31.89
365.915	31.89
366.296	10.89
366.678	61.89
367.06	8.89
367.441	19.89
367.823	22.89
368.204	12.89
368.586	14.89
368.967	22.89
369.348	19.89
369.73	21.89
370.111	15.89
370.492	4.89
370.873	12.89
371.255	39.89
371.636	9.89
372.017	17.89
372.398	26.89
372.779	17.89
373.16	7.89
373.54	4.89
373.921	10.89
374.302	3.89
374.683	11.89
375.064	14.89
375.444	10.89
375.825	17.89
376.205	13.89
376.586	23.89
376.966	15.89
377.347	13.89
377.727	11.89
378.108	7.89
378.488	13.89
378.868	5.89
379.248	17.89
379.629	13.89
380.009	45.89
380.389	13.89
380.769	16.89
381.149	8.89
381.529	24.89
381.909	25.89
382.289	10.89
382.668	94.89
383.048	14.89
383.428	8.89
383.808	6.89
384.187	18.89
384.567	16.89
384.946	5.89
385.326	14.89
385.705	25.89
386.085	7.89
386.464	25.89
386.844	22.89
387.223	15.89
387.602	9.89
387.981	15.89
388.361	12.89
388.74	17.89
389.119	5.89
389.498	21.89
389.877	17.89
390.256	7.89
390.635	22.89
391.013	20.89
391.392	9.89
391.771	42.89
392.15	20.89
392.528	12.89
392.907	1.89
393.286	14.89
393.664	20.89
394.043	10.89
394.421	19.89
394.8	14.89
395.178	8.89
395.556	19.89
395.935	12.89
396.313	10.89
396.691	16.89
397.069	10.89
397.447	4.89
397.825	13.89
398.203	16.89
398.581	24.89
398.959	12.89
399.337	17.89
399.715	69.89
400.093	7.89
400.471	5.89
400.848	6.89
401.226	22.89
401.604	15.89
401.981	16.89
402.359	9.89
402.736	11.89
403.114	38.89
403.491	21.89
403.868	22.89
404.246	56.89
404.623	25.89
405	9.89
405.377	9.89
405.755	13.89
406.132	8.89
406.509	6.89
406.886	17.89
407.263	22.89
407.64	6.89
408.017	17.89
408.393	13.89
408.77	14.89
409.147	9.89
409.524	13.89
409.9	17.89
410.277	15.89
410.653	10.89
411.03	18.89
411.406	10.89
411.783	47.89
412.159	13.89
412.536	20.89
412.912	3.89
413.288	32.89
413.664	5.89
414.04	3.89
414.417	23.89
414.793	12.89
415.169	15.89
415.545	25.89
415.921	20.89
416.297	29.89
416.672	12.89
417.048	13.89
417.424	8.89
417.8	38.89
418.175	14.89
418.551	7.89
418.927	5.89
419.302	78.89
419.678	29.89
420.053	12.89
420.429	15.89
420.804	15.89
421.179	9.89
421.554	8.89
421.93	14.89
422.305	67.89
422.68	16.89
423.055	14.89
423.43	11.89
423.805	13.89
424.18	7.89
424.555	18.89
424.93	15.89
425.305	8.89
425.68	16.89
426.054	14.89
426.429	18.89
426.804	15.89
427.178	26.89
427.553	10.89
427.927	63.89
428.302	12.89
428.676	11.89
429.051	14.89
429.425	5.89
429.799	27.89
430.174	15.89
430.548	10.89
430.922	29.89
431.296	8.89
431.67	24.89
432.044	25.89
432.418	14.89
432.792	12.89
433.166	10.89
433.54	18.89
433.914	14.89
434.287	14.89
434.661	10.89
435.035	13.89
435.408	13.89
435.782	21.89
436.156	20.89
436.529	54.89
436.903	8.89
437.276	10.89
437.649	34.89
438.023	61.89
438.396	11.89
438.769	14.89
439.142	18.89
439.515	25.89
439.889	29.89
440.262	21.89
440.635	34.89
441.008	25.89
441.38	24.89
441.753	21.89
442.126	22.89
442.499	20.89
442.872	73.89
443.244	59.89
443.617	13.89
443.99	23.89
444.362	25.89
444.735	11.89
445.107	17.89
445.48	50.89
445.852	15.89
446.224	20.89
446.597	18.89
446.969	17.89
447.341	27.89
447.713	28.89
448.085	17.89
448.457	28.89
448.829	24.89
449.201	30.89
449.573	24.89
449.945	22.89
450.317	9.89
450.689	22.89
451.061	21.89
451.432	22.89
451.804	30.89
452.176	42.89
452.547	22.89
452.919	23.89
453.29	25.89
453.662	25.89
454.033	20.89
454.404	32.89
454.776	19.89
455.147	20.89
455.518	23.89
455.889	19.89
456.26	25.89
456.631	31.89
457.002	21.89
457.373	20.89
457.744	31.89
458.115	25.89
458.486	30.89
458.857	17.89
459.228	22.89
459.598	18.89
459.969	19.89
460.34	31.89
460.71	14.89
461.081	18.89
461.451	32.89
461.822	23.89
462.192	13.89
462.563	10.89
462.933	15.89
463.303	19.89
463.673	30.89
464.044	25.89
464.414	21.89
464.784	24.89
465.154	21.89
465.524	12.89
465.894	26.89
466.264	20.89
466.634	27.89
467.003	21.89
467.373	19.89
467.743	27.89
468.113	31.89
468.482	22.89
468.852	21.89
469.221	24.89
469.591	18.89
469.96	26.89
470.33	10.89
470.699	70.89
471.068	14.89
471.438	25.89
471.807	26.89
472.176	31.89
472.545	41.89
472.914	13.89
473.283	22.89
473.652	23.89
474.021	44.89
474.39	21.89
474.759	29.89
475.128	18.89
475.497	9.89
475.865	16.89
476.234	18.89
476.603	7.89
476.971	16.89
477.34	9.89
477.708	26.89
478.077	18.89
478.445	21.89
478.814	11.89
479.182	27.89
479.55	16.89
479.919	15.89
480.287	18.89
480.655	32.89
481.023	11.89
481.391	17.89
481.759	23.89
482.127	17.89
482.495	14.89
482.863	17.89
483.231	12.89
483.598	20.89
483.966	26.89
484.334	24.89
484.701	23.89
485.069	33.89
485.437	54.89
485.804	16.89
486.172	19.89
486.539	24.89
486.906	17.89
487.274	30.89
487.641	19.89
488.008	22.89
488.375	37.89
488.743	27.89
489.11	24.89
489.477	9.89
489.844	16.89
490.211	19.89
490.578	19.89
490.945	26.89
491.311	24.89
491.678	25.89
492.045	36.89
492.412	20.89
492.778	19.89
493.145	33.89
493.511	19.89
493.878	30.89
494.244	19.89
494.611	27.89
494.977	21.89
495.344	13.89
495.71	70.89
496.076	15.89
496.442	34.89
496.808	15.89
497.175	31.89
497.541	17.89
497.907	26.89
498.273	44.89
498.638	41.89
499.004	24.89
499.37	28.89
499.736	67.89
500.102	21.89
500.467	41.89
500.833	23.89
501.199	38.89
501.564	30.89
501.93	29.89
502.295	35.89
502.661	28.89
503.026	33.89
503.391	24.89
503.757	33.89
504.122	28.89
504.487	34.89
504.852	41.89
505.217	36.89
505.582	28.89
505.947	38.89
506.312	41.89
506.677	30.89
507.042	30.89
507.407	45.89
507.772	51.89
508.136	50.89
508.501	49.89
508.866	35.89
509.23	55.89
509.595	41.89
509.959	39.89
510.324	31.89
510.688	49.89
511.053	45.89
511.417	93.89
511.781	34.89
512.146	36.89
512.51	55.89
512.874	80.89
513.238	43.89
513.602	37.89
513.966	42.89
514.33	44.89
514.694	33.89
515.058	35.89
515.422	56.89
515.785	56.89
516.149	44.89
516.513	63.89
516.876	43.89
517.24	47.89
517.604	39.89
517.967	46.89
518.331	38.89
518.694	38.89
519.057	46.89
519.421	48.89
519.784	47.89
520.147	66.89
520.51	67.89
520.873	51.89
521.237	54.89
521.6	55.89
521.963	42.89
522.326	45.89
522.688	45.89
523.051	49.89
523.414	57.89
523.777	126.89
524.14	41.89
524.502	55.89
524.865	49.89
525.228	54.89
525.59	60.89
525.953	65.89
526.315	55.89
526.677	48.89
527.04	96.89
527.402	53.89
527.764	59.89
528.127	47.89
528.489	61.89
528.851	53.89
529.213	52.89
529.575	52.89
529.937	71.89
530.299	55.89
530.661	58.89
531.023	57.89
531.384	58.89
531.746	61.89
532.108	56.89
532.47	58.89
532.831	62.89
533.193	52.89
533.554	64.89
533.916	57.89
534.277	63.89
534.639	52.89
535	59.89
535.361	69.89
535.723	72.89
536.084	62.89
536.445	77.89
536.806	132.89
537.167	95.89
537.528	67.89
537.889	78.89
538.25	67.89
538.611	67.89
538.972	65.89
539.333	64.89
539.693	84.89
540.054	255.89
540.415	65.89
540.775	57.89
541.136	65.89
541.496	66.89
541.857	85.89
542.217	73.89
542.578	77.89
542.938	94.89
543.298	76.89
543.658	76.89
544.019	76.89
544.379	71.89
544.739	77.89
545.099	69.89
545.459	76.89
545.819	79.89
546.179	72.89
546.539	101.89
546.899	80.89
547.258	92.89
547.618	79.89
547.978	96.89
548.337	89.89
548.697	74.89
549.056	100.89
549.416	76.89
549.775	85.89
550.135	82.89
550.494	74.89
550.854	98.89
551.213	84.89
551.572	87.89
551.931	93.89
552.29	86.89
552.649	85.89
553.008	83.89
553.367	117.89
553.726	104.89
554.085	80.89
554.444	191.89
554.803	80.89
555.162	93.89
555.52	80.89
555.879	93.89
556.238	87.89
556.596	83.89
556.955	97.89
557.313	97.89
557.672	92.89
558.03	90.89
558.388	85.89
558.747	109.89
559.105	86.89
559.463	90.89
559.821	89.89
560.179	94.89
560.537	96.89
560.896	93.89
561.253	86.89
561.611	88.89
561.969	94.89
562.327	93.89
562.685	101.89
563.043	88.89
563.4	87.89
563.758	96.89
564.116	104.89
564.473	91.89
564.831	87.89
565.188	100.89
565.546	130.89
565.903	102.89
566.26	97.89
566.617	99.89
566.975	116.89
567.332	103.89
567.689	92.89
568.046	93.89
568.403	107.89
568.76	92.89
569.117	106.89
569.474	106.89
569.831	104.89
570.188	108.89
570.544	104.89
570.901	100.89
571.258	123.89
571.614	96.89
571.971	109.89
572.328	99.89
572.684	108.89
573.04	117.89
573.397	102.89
573.753	127.89
574.109	113.89
574.466	112.89
574.822	100.89
575.178	112.89
575.534	104.89
575.89	113.89
576.246	106.89
576.602	112.89
576.958	119.89
577.314	110.89
577.67	107.89
578.026	106.89
578.381	109.89
578.737	103.89
579.093	120.89
579.448	116.89
579.804	140.89
580.159	112.89
580.515	99.89
580.87	112.89
581.226	113.89
581.581	127.89
581.936	125.89
582.291	105.89
582.647	113.89
583.002	130.89
583.357	114.89
583.712	118.89
584.067	110.89
584.422	122.89
584.777	113.89
585.131	112.89
585.486	104.89
585.841	108.89
586.196	131.89
586.55	101.89
586.905	110.89
587.26	106.89
587.614	108.89
587.969	131.89
588.323	111.89
588.677	127.89
589.032	124.89
589.386	126.89
589.74	139.89
590.094	125.89
590.449	129.89
590.803	145.89
591.157	116.89
591.511	147.89
591.865	118.89
592.219	136.89
592.573	107.89
592.926	112.89
593.28	108.89
593.634	146.89
593.988	105.89
594.341	107.89
594.695	113.89
595.048	106.89
595.402	99.89
595.755	95.89
596.109	119.89
596.462	115.89
596.815	100.89
597.169	124.89
597.522	105.89
597.875	154.89
598.228	112.89
598.581	111.89
598.934	140.89
599.287	104.89
599.64	121.89
599.993	107.89
600.346	107.89
600.698	105.89
601.051	113.89
601.404	102.89
601.757	108.89
602.109	114.89
602.462	108.89
602.814	97.89
603.167	105.89
603.519	105.89
603.871	103.89
604.224	100.89
604.576	90.89
604.928	120.89
605.28	99.89
605.633	97.89
605.985	109.89
606.337	95.89
606.689	92.89
607.041	124.89
607.392	93.89
607.744	106.89
608.096	101.89
608.448	99.89
608.8	93.89
609.151	92.89
609.503	96.89
609.854	98.89
610.206	125.89
610.557	103.89
610.909	93.89
611.26	110.89
611.612	96.89
611.963	81.89
612.314	105.89
612.665	93.89
613.016	96.89
613.367	87.89
613.719	107.89
614.07	92.89
614.42	85.89
614.771	78.89
615.122	101.89
615.473	87.89
615.824	87.89
616.174	99.89
616.525	86.89
616.876	77.89
617.226	92.89
617.577	83.89
617.927	81.89
618.278	79.89
618.628	148.89
618.979	90.89
619.329	82.89
619.679	100.89
620.029	88.89
620.379	81.89
620.729	89.89
621.08	88.89
621.43	96.89
621.779	106.89
622.129	80.89
622.479	87.89
622.829	84.89
623.179	76.89
623.529	72.89
623.878	82.89
624.228	73.89
624.577	67.89
624.927	63.89
625.276	69.89
625.626	86.89
625.975	93.89
626.325	69.89
626.674	112.89
627.023	63.89
627.372	75.89
627.722	103.89
628.071	92.89
628.42	76.89
628.769	109.89
629.118	75.89
629.467	72.89
629.815	79.89
630.164	60.89
630.513	81.89
630.862	106.89
631.21	74.89
631.559	64.89
631.908	63.89
632.256	65.89
632.605	63.89
632.953	62.89
633.302	59.89
633.65	79.89
633.998	136.89
634.346	81.89
634.695	57.89
635.043	52.89
635.391	83.89
635.739	55.89
636.087	63.89
636.435	80.89
636.783	62.89
637.131	55.89
637.479	67.89
637.826	61.89
638.174	51.89
638.522	55.89
638.869	102.89
639.217	49.89
639.564	60.89
639.912	50.89
640.259	62.89
640.607	67.89
640.954	61.89
641.301	68.89
641.649	48.89
641.996	55.89
642.343	63.89
642.69	56.89
643.037	55.89
643.384	74.89
643.731	46.89
644.078	87.89
644.425	45.89
644.772	55.89
645.119	47.89
645.465	43.89
645.812	51.89
646.159	55.89
646.505	58.89
646.852	74.89
647.198	49.89
647.545	61.89
647.891	58.89
648.237	46.89
648.584	49.89
648.93	45.89
649.276	48.89
649.622	56.89
649.969	66.89
650.315	54.89
650.661	59.89
651.007	59.89
651.352	57.89
651.698	43.89
652.044	44.89
652.39	58.89
652.736	43.89
653.081	41.89
653.427	49.89
653.773	46.89
654.118	48.89
654.464	40.89
654.809	48.89
655.154	33.89
655.5	44.89
655.845	36.89
656.19	39.89
656.536	38.89
656.881	42.89
657.226	34.89
657.571	92.89
657.916	36.89
658.261	32.89
658.606	42.89
658.951	29.89
659.295	31.89
659.64	26.89
659.985	40.89
660.33	27.89
660.674	35.89
661.019	41.89
661.363	40.89
661.708	41.89
662.052	30.89
662.397	28.89
662.741	32.89
663.085	33.89
663.429	39.89
663.774	76.89
664.118	22.89
664.462	31.89
664.806	28.89
665.15	47.89
665.494	27.89
665.838	26.89
666.182	34.89
666.526	35.89
666.869	23.89
667.213	29.89
667.557	41.89
667.9	33.89
668.244	35.89
668.587	35.89
668.931	27.89
669.274	32.89
669.618	23.89
669.961	23.89
670.304	25.89
670.648	30.89
670.991	22.89
671.334	21.89
671.677	21.89
672.02	19.89
672.363	25.89
672.706	24.89
673.049	32.89
673.392	24.89
673.735	33.89
674.077	25.89
674.42	17.89
674.763	20.89
675.105	27.89
675.448	37.89
675.79	17.89
676.133	29.89
676.475	21.89
676.818	23.89
677.16	16.89
677.502	29.89
677.844	44.89
678.187	14.89
678.529	55.89
678.871	30.89
679.213	25.89
679.555	29.89
679.897	31.89
680.239	23.89
680.58	24.89
680.922	30.89
681.264	33.89
681.606	22.89
681.947	22.89
682.289	23.89
682.631	60.89
682.972	20.89
683.313	27.89
683.655	26.89
683.996	18.89
684.338	24.89
684.679	18.89
685.02	22.89
685.361	30.89
685.702	26.89
686.043	35.89
686.384	19.89
686.725	17.89
687.066	34.89
687.407	17.89
687.748	19.89
688.089	43.89
688.43	20.89
688.77	59.89
689.111	32.89
689.451	26.89
689.792	32.89
690.132	24.89
690.473	29.89
690.813	19.89
691.154	26.89
691.494	25.89
691.834	29.89
692.174	14.89
692.515	22.89
692.855	19.89
693.195	32.89
693.535	35.89
693.875	19.89
694.215	23.89
694.554	34.89
694.894	16.89
695.234	23.89
695.574	19.89
695.913	25.89
696.253	25.89
696.593	32.89
696.932	22.89
697.272	21.89
697.611	19.89
697.95	28.89
698.29	22.89
698.629	25.89
698.968	15.89
699.307	18.89
699.647	27.89
699.986	37.89
700.325	29.89
700.664	17.89
701.003	20.89
701.341	16.89
701.68	15.89
702.019	14.89
702.358	18.89
702.697	19.89
703.035	32.89
703.374	23.89
703.712	34.89
704.051	15.89
704.389	30.89
704.728	16.89
705.066	15.89
705.404	22.89
705.743	22.89
706.081	19.89
706.419	11.89
706.757	18.89
707.095	34.89
707.433	23.89
707.771	23.89
708.109	9.89
708.447	20.89
708.785	29.89
709.123	29.89
709.46	19.89
709.798	16.89
710.136	29.89
710.473	21.89
710.811	30.89
711.148	34.89
711.486	22.89
711.823	15.89
712.16	17.89
712.498	15.89
712.835	30.89
713.172	16.89
713.509	30.89
713.846	77.89
714.183	35.89
714.52	18.89
714.857	15.89
715.194	21.89
715.531	19.89
715.868	27.89
716.205	15.89
716.541	15.89
716.878	30.89
717.215	21.89
717.551	24.89
717.888	21.89
718.224	72.89
718.561	23.89
718.897	13.89
719.233	9.89
719.57	15.89
719.906	13.89
720.242	15.89
720.578	12.89
720.914	17.89
721.25	22.89
721.586	9.89
721.922	13.89
722.258	35.89
722.594	10.89
722.929	20.89
723.265	17.89
723.601	25.89
723.937	38.89
724.272	11.89
724.608	20.89
724.943	13.89
725.279	7.89
725.614	14.89
725.949	21.89
726.285	21.89
726.62	45.89
726.955	14.89
727.29	14.89
727.625	16.89
727.96	23.89
728.295	34.89
728.63	18.89
728.965	14.89
729.3	15.89
729.635	56.89
729.97	17.89
730.304	9.89
730.639	22.89
730.974	15.89
731.308	29.89
731.643	6.89
731.977	29.89
732.311	24.89
732.646	11.89
732.98	21.89
733.314	3.89
733.649	21.89
733.983	17.89
734.317	45.89
734.651	17.89
734.985	22.89
735.319	12.89
735.653	15.89
735.987	31.89
736.321	30.89
736.654	10.89
736.988	23.89
737.322	33.89
737.655	18.89
737.989	19.89
738.322	15.89
738.656	12.89
738.989	19.89
739.323	19.89
739.656	19.89
739.989	32.89
740.323	11.89
740.656	10.89
740.989	14.89
741.322	14.89
741.655	27.89
741.988	42.89
742.321	27.89
742.654	12.89
742.987	11.89
743.319	14.89
743.652	23.89
743.985	22.89
744.317	13.89
744.65	9.89
744.983	24.89
745.315	13.89
745.648	15.89
745.98	12.89
746.312	14.89
746.645	16.89
746.977	25.89
747.309	20.89
747.641	14.89
747.973	29.89
748.305	8.89
748.637	11.89
748.969	10.89
749.301	19.89
749.633	12.89
749.965	6.89
750.297	18.89
750.628	23.89
750.96	22.89
751.292	34.89
751.623	16.89
751.955	17.89
752.286	22.89
752.618	6.89
752.949	4.89
753.28	27.89
753.611	6.89
753.943	21.89
754.274	23.89
754.605	16.89
754.936	18.89
755.267	11.89
755.598	23.89
755.929	10.89
756.26	13.89
756.591	133.89
756.921	14.89
757.252	19.89
757.583	17.89
757.913	15.89
758.244	10.89
758.574	19.89
758.905	10.89
759.235	27.89
759.566	2.89
759.896	29.89
760.226	18.89
760.557	2.89
760.887	2.89
761.217	14.89
761.547	31.89
761.877	19.89
762.207	29.89
762.537	14.89
762.867	12.89
763.197	40.89
763.526	10.89
763.856	26.89
764.186	17.89
764.515	-0.11
764.845	0.89
765.175	21.89
765.504	14.89
765.833	8.89
766.163	12.89
766.492	9.89
766.821	16.89
767.151	19.89
767.48	7.89
767.809	21.89
768.138	19.89
768.467	11.89
768.796	6.89
769.125	12.89
769.454	8.89
769.783	14.89
770.112	12.89
770.44	16.89
770.769	12.89
771.098	23.89
771.426	16.89
771.755	6.89
772.083	13.89
772.412	14.89
772.74	12.89
773.069	77.89
773.397	26.89
773.725	3.89
774.053	45.89
774.381	21.89
774.71	24.89
775.038	-0.11
775.366	9.89
775.693	8.89
776.021	20.89
776.349	10.89
776.677	12.89
777.005	15.89
777.332	15.89
777.66	-0.11
777.988	18.89
778.315	27.89
778.643	15.89
778.97	13.89
779.298	12.89
779.625	15.89
779.952	7.89
780.28	17.89
780.607	15.89
780.934	28.89
781.261	22.89
781.588	9.89
781.915	22.89
782.242	19.89
782.569	36.89
782.896	17.89
783.223	8.89
783.549	26.89
783.876	12.89
784.203	4.89
784.529	29.89
784.856	16.89
785.182	25.89
785.509	26.89
785.835	13.89
786.162	17.89
786.488	14.89
786.814	8.89
787.14	22.89
787.466	18.89
787.793	24.89
788.119	11.89
788.445	9.89
788.771	19.89
789.097	14.89
789.422	13.89
789.748	6.89
790.074	12.89
790.4	30.89
790.725	17.89
791.051	81.89
791.376	14.89
791.702	15.89
792.027	17.89
792.353	11.89
792.678	24.89
793.004	27.89
793.329	21.89
793.654	12.89
793.979	15.89
794.304	10.89
794.629	18.89
794.954	10.89
795.279	14.89
795.604	20.89
795.929	14.89
796.254	11.89
796.579	2.89
796.903	72.89
797.228	9.89
797.553	35.89
797.877	6.89
798.202	25.89
798.526	12.89
798.851	8.89
799.175	19.89
799.499	21.89
799.823	12.89
800.148	12.89
800.472	7.89
800.796	13.89
801.12	15.89
801.444	23.89
801.768	13.89
802.092	15.89
802.416	10.89
802.74	24.89
803.063	13.89
803.387	17.89
803.711	91.89
804.034	21.89
804.358	17.89
804.681	22.89
805.005	20.89
805.328	18.89
805.652	3.89
