Data from USB2G147421__107__13-40-27-842.txt Node

Date: Tue Jun 28 13:40:27 UTC 2022
User: yes
Spectrometer: USB2G14742
Trigger mode: 4
Integration Time (sec): 2.000000E0
Scans to average: 1
Electric dark correction enabled: true
Nonlinearity correction enabled: false
Boxcar width: 0
XAxis mode: Wavelengths
Number of Pixels in Spectrum: 2048
>>>>>Begin Spectral Data<<<<<
339.471	-152.33
339.856	-4.33
340.241	-5.33
340.625	-8.33
341.01	0.67
341.395	36.67
341.779	11.67
342.163	4.67
342.548	13.67
342.932	15.67
343.317	5.67
343.701	7.67
344.085	12.67
344.469	4.67
344.853	4.67
345.238	9.67
345.622	12.67
346.006	29.67
346.39	8.67
346.774	13.67
347.157	14.67
347.541	8.67
347.925	5.67
348.309	17.67
348.693	30.67
349.076	10.67
349.46	21.67
349.843	18.67
350.227	10.67
350.61	67.67
350.994	18.67
351.377	12.67
351.761	36.67
352.144	29.67
352.527	7.67
352.91	9.67
353.294	12.67
353.677	19.67
354.06	17.67
354.443	85.67
354.826	6.67
355.209	6.67
355.592	4.67
355.975	9.67
356.358	22.67
356.74	13.67
357.123	12.67
357.506	8.67
357.889	6.67
358.271	17.67
358.654	6.67
359.036	14.67
359.419	8.67
359.801	12.67
360.184	11.67
360.566	17.67
360.948	25.67
361.331	15.67
361.713	7.67
362.095	20.67
362.477	6.67
362.859	10.67
363.241	19.67
363.623	8.67
364.005	15.67
364.387	23.67
364.769	10.67
365.151	15.67
365.533	40.67
365.915	28.67
366.296	10.67
366.678	60.67
367.06	7.67
367.441	12.67
367.823	30.67
368.204	12.67
368.586	7.67
368.967	13.67
369.348	23.67
369.73	16.67
370.111	10.67
370.492	8.67
370.873	16.67
371.255	47.67
371.636	9.67
372.017	17.67
372.398	22.67
372.779	21.67
373.16	11.67
373.54	8.67
373.921	10.67
374.302	9.67
374.683	18.67
375.064	15.67
375.444	7.67
375.825	17.67
376.205	14.67
376.586	19.67
376.966	15.67
377.347	13.67
377.727	18.67
378.108	9.67
378.488	8.67
378.868	7.67
379.248	14.67
379.629	14.67
380.009	43.67
380.389	14.67
380.769	16.67
381.149	11.67
381.529	25.67
381.909	25.67
382.289	13.67
382.668	96.67
383.048	14.67
383.428	6.67
383.808	12.67
384.187	12.67
384.567	16.67
384.946	12.67
385.326	23.67
385.705	23.67
386.085	8.67
386.464	24.67
386.844	16.67
387.223	17.67
387.602	11.67
387.981	18.67
388.361	17.67
388.74	20.67
389.119	10.67
389.498	16.67
389.877	16.67
390.256	14.67
390.635	23.67
391.013	18.67
391.392	8.67
391.771	49.67
392.15	17.67
392.528	15.67
392.907	4.67
393.286	13.67
393.664	17.67
394.043	7.67
394.421	16.67
394.8	12.67
395.178	11.67
395.556	20.67
395.935	21.67
396.313	9.67
396.691	23.67
397.069	11.67
397.447	10.67
397.825	16.67
398.203	16.67
398.581	22.67
398.959	13.67
399.337	20.67
399.715	73.67
400.093	8.67
400.471	10.67
400.848	9.67
401.226	20.67
401.604	17.67
401.981	17.67
402.359	19.67
402.736	6.67
403.114	41.67
403.491	22.67
403.868	24.67
404.246	49.67
404.623	32.67
405	7.67
405.377	12.67
405.755	18.67
406.132	8.67
406.509	11.67
406.886	20.67
407.263	24.67
407.64	12.67
408.017	18.67
408.393	17.67
408.77	18.67
409.147	16.67
409.524	11.67
409.9	16.67
410.277	25.67
410.653	9.67
411.03	22.67
411.406	11.67
411.783	37.67
412.159	23.67
412.536	21.67
412.912	9.67
413.288	22.67
413.664	7.67
414.04	7.67
414.417	22.67
414.793	17.67
415.169	16.67
415.545	28.67
415.921	15.67
416.297	29.67
416.672	11.67
417.048	10.67
417.424	16.67
417.8	47.67
418.175	14.67
418.551	11.67
418.927	7.67
419.302	77.67
419.678	27.67
420.053	18.67
420.429	23.67
420.804	17.67
421.179	12.67
421.554	16.67
421.93	21.67
422.305	63.67
422.68	21.67
423.055	21.67
423.43	19.67
423.805	16.67
424.18	18.67
424.555	27.67
424.93	26.67
425.305	17.67
425.68	24.67
426.054	26.67
426.429	27.67
426.804	34.67
427.178	36.67
427.553	20.67
427.927	85.67
428.302	33.67
428.676	37.67
429.051	34.67
429.425	33.67
429.799	46.67
430.174	49.67
430.548	38.67
430.922	62.67
431.296	43.67
431.67	61.67
432.044	64.67
432.418	55.67
432.792	49.67
433.166	56.67
433.54	66.67
433.914	71.67
434.287	64.67
434.661	68.67
435.035	67.67
435.408	73.67
435.782	74.67
436.156	80.67
436.529	118.67
436.903	73.67
437.276	89.67
437.649	104.67
438.023	132.67
438.396	88.67
438.769	88.67
439.142	105.67
439.515	110.67
439.889	96.67
440.262	112.67
440.635	113.67
441.008	111.67
441.38	104.67
441.753	116.67
442.126	104.67
442.499	115.67
442.872	166.67
443.244	139.67
443.617	118.67
443.99	121.67
444.362	123.67
444.735	116.67
445.107	119.67
445.48	146.67
445.852	125.67
446.224	134.67
446.597	137.67
446.969	146.67
447.341	164.67
447.713	153.67
448.085	153.67
448.457	169.67
448.829	173.67
449.201	176.67
449.573	172.67
449.945	195.67
450.317	178.67
450.689	211.67
451.061	206.67
451.432	215.67
451.804	209.67
452.176	229.67
452.547	214.67
452.919	246.67
453.29	236.67
453.662	213.67
454.033	229.67
454.404	263.67
454.776	239.67
455.147	220.67
455.518	225.67
455.889	234.67
456.26	218.67
456.631	233.67
457.002	206.67
457.373	219.67
457.744	215.67
458.115	206.67
458.486	203.67
458.857	171.67
459.228	193.67
459.598	171.67
459.969	162.67
460.34	176.67
460.71	163.67
461.081	146.67
461.451	173.67
461.822	162.67
462.192	137.67
462.563	126.67
462.933	134.67
463.303	126.67
463.673	136.67
464.044	128.67
464.414	117.67
464.784	117.67
465.154	121.67
465.524	115.67
465.894	117.67
466.264	112.67
466.634	118.67
467.003	104.67
467.373	109.67
467.743	125.67
468.113	120.67
468.482	112.67
468.852	114.67
469.221	114.67
469.591	113.67
469.96	119.67
470.33	102.67
470.699	154.67
471.068	101.67
471.438	110.67
471.807	112.67
472.176	108.67
472.545	106.67
472.914	89.67
473.283	101.67
473.652	99.67
474.021	112.67
474.39	84.67
474.759	91.67
475.128	90.67
475.497	71.67
475.865	77.67
476.234	84.67
476.603	75.67
476.971	81.67
477.34	75.67
477.708	91.67
478.077	79.67
478.445	80.67
478.814	69.67
479.182	86.67
479.55	80.67
479.919	76.67
480.287	76.67
480.655	100.67
481.023	70.67
481.391	83.67
481.759	75.67
482.127	81.67
482.495	78.67
482.863	80.67
483.231	71.67
483.598	89.67
483.966	93.67
484.334	87.67
484.701	103.67
485.069	99.67
485.437	118.67
485.804	93.67
486.172	96.67
486.539	104.67
486.906	104.67
487.274	113.67
487.641	107.67
488.008	112.67
488.375	122.67
488.743	118.67
489.11	99.67
489.477	107.67
489.844	108.67
490.211	113.67
490.578	107.67
490.945	123.67
491.311	129.67
491.678	133.67
492.045	143.67
492.412	123.67
492.778	131.67
493.145	133.67
493.511	132.67
493.878	135.67
494.244	137.67
494.611	146.67
494.977	149.67
495.344	144.67
495.71	200.67
496.076	155.67
496.442	169.67
496.808	161.67
497.175	175.67
497.541	171.67
497.907	178.67
498.273	210.67
498.638	209.67
499.004	179.67
499.37	192.67
499.736	230.67
500.102	193.67
500.467	214.67
500.833	207.67
501.199	219.67
501.564	213.67
501.93	221.67
502.295	238.67
502.661	230.67
503.026	243.67
503.391	230.67
503.757	245.67
504.122	229.67
504.487	242.67
504.852	265.67
505.217	264.67
505.582	250.67
505.947	268.67
506.312	264.67
506.677	271.67
507.042	275.67
507.407	300.67
507.772	299.67
508.136	305.67
508.501	301.67
508.866	298.67
509.23	317.67
509.595	309.67
509.959	317.67
510.324	302.67
510.688	335.67
511.053	329.67
511.417	378.67
511.781	324.67
512.146	318.67
512.51	359.67
512.874	387.67
513.238	344.67
513.602	356.67
513.966	351.67
514.33	365.67
514.694	363.67
515.058	352.67
515.422	371.67
515.785	382.67
516.149	374.67
516.513	393.67
516.876	383.67
517.24	384.67
517.604	381.67
517.967	394.67
518.331	387.67
518.694	394.67
519.057	398.67
519.421	414.67
519.784	418.67
520.147	440.67
520.51	426.67
520.873	410.67
521.237	424.67
521.6	426.67
521.963	418.67
522.326	427.67
522.688	430.67
523.051	429.67
523.414	432.67
523.777	521.67
524.14	443.67
524.502	450.67
524.865	437.67
525.228	471.67
525.59	457.67
525.953	479.67
526.315	463.67
526.677	471.67
527.04	501.67
527.402	481.67
527.764	461.67
528.127	471.67
528.489	481.67
528.851	475.67
529.213	466.67
529.575	494.67
529.937	510.67
530.299	483.67
530.661	498.67
531.023	499.67
531.384	486.67
531.746	493.67
532.108	512.67
532.47	504.67
532.831	506.67
533.193	514.67
533.554	534.67
533.916	505.67
534.277	522.67
534.639	510.67
535	526.67
535.361	532.67
535.723	541.67
536.084	532.67
536.445	549.67
536.806	615.67
537.167	570.67
537.528	529.67
537.889	558.67
538.25	544.67
538.611	555.67
538.972	550.67
539.333	555.67
539.693	576.67
540.054	599.67
540.415	572.67
540.775	554.67
541.136	559.67
541.496	559.67
541.857	574.67
542.217	559.67
542.578	571.67
542.938	604.67
543.298	572.67
543.658	579.67
544.019	577.67
544.379	581.67
544.739	580.67
545.099	586.67
545.459	597.67
545.819	582.67
546.179	581.67
546.539	620.67
546.899	579.67
547.258	607.67
547.618	606.67
547.978	613.67
548.337	621.67
548.697	603.67
549.056	630.67
549.416	612.67
549.775	608.67
550.135	607.67
550.494	609.67
550.854	641.67
551.213	631.67
551.572	609.67
551.931	625.67
552.29	611.67
552.649	620.67
553.008	622.67
553.367	667.67
553.726	659.67
554.085	633.67
554.444	743.67
554.803	628.67
555.162	648.67
555.52	642.67
555.879	647.67
556.238	632.67
556.596	641.67
556.955	648.67
557.313	663.67
557.672	638.67
558.03	649.67
558.388	641.67
558.747	674.67
559.105	657.67
559.463	660.67
559.821	628.67
560.179	665.67
560.537	675.67
560.896	662.67
561.253	655.67
561.611	655.67
561.969	660.67
562.327	669.67
562.685	671.67
563.043	662.67
563.4	686.67
563.758	668.67
564.116	685.67
564.473	665.67
564.831	671.67
565.188	681.67
565.546	722.67
565.903	684.67
566.26	700.67
566.617	693.67
566.975	701.67
567.332	691.67
567.689	720.67
568.046	702.67
568.403	717.67
568.76	710.67
569.117	715.67
569.474	706.67
569.831	700.67
570.188	726.67
570.544	722.67
570.901	700.67
571.258	741.67
571.614	722.67
571.971	739.67
572.328	716.67
572.684	725.67
573.04	742.67
573.397	725.67
573.753	754.67
574.109	740.67
574.466	740.67
574.822	718.67
575.178	748.67
575.534	753.67
575.89	752.67
576.246	751.67
576.602	741.67
576.958	754.67
577.314	739.67
577.67	738.67
578.026	753.67
578.381	756.67
578.737	738.67
579.093	742.67
579.448	763.67
579.804	790.67
580.159	767.67
580.515	752.67
580.87	769.67
581.226	757.67
581.581	762.67
581.936	757.67
582.291	761.67
582.647	755.67
583.002	783.67
583.357	767.67
583.712	757.67
584.067	751.67
584.422	762.67
584.777	770.67
585.131	753.67
585.486	754.67
585.841	744.67
586.196	784.67
586.55	763.67
586.905	768.67
587.26	735.67
587.614	734.67
587.969	777.67
588.323	754.67
588.677	748.67
589.032	763.67
589.386	761.67
589.74	760.67
590.094	750.67
590.449	755.67
590.803	779.67
591.157	729.67
591.511	779.67
591.865	749.67
592.219	754.67
592.573	758.67
592.926	726.67
593.28	720.67
593.634	758.67
593.988	725.67
594.341	718.67
594.695	726.67
595.048	712.67
595.402	702.67
595.755	722.67
596.109	742.67
596.462	734.67
596.815	719.67
597.169	729.67
597.522	706.67
597.875	747.67
598.228	708.67
598.581	687.67
598.934	737.67
599.287	686.67
599.64	712.67
599.993	704.67
600.346	690.67
600.698	697.67
601.051	678.67
601.404	684.67
601.757	670.67
602.109	698.67
602.462	688.67
602.814	673.67
603.167	695.67
603.519	672.67
603.871	689.67
604.224	667.67
604.576	667.67
604.928	689.67
605.28	677.67
605.633	657.67
605.985	669.67
606.337	657.67
606.689	655.67
607.041	677.67
607.392	632.67
607.744	669.67
608.096	635.67
608.448	661.67
608.8	638.67
609.151	635.67
609.503	632.67
609.854	630.67
610.206	660.67
610.557	644.67
610.909	620.67
611.26	642.67
611.612	625.67
611.963	614.67
612.314	629.67
612.665	622.67
613.016	612.67
613.367	627.67
613.719	629.67
614.07	589.67
614.42	600.67
614.771	589.67
615.122	613.67
615.473	599.67
615.824	586.67
616.174	591.67
616.525	586.67
616.876	585.67
617.226	565.67
617.577	575.67
617.927	564.67
618.278	554.67
618.628	647.67
618.979	568.67
619.329	561.67
619.679	573.67
620.029	568.67
620.379	551.67
620.729	580.67
621.08	561.67
621.43	577.67
621.779	577.67
622.129	549.67
622.479	539.67
622.829	545.67
623.179	540.67
623.529	522.67
623.878	513.67
624.228	533.67
624.577	530.67
624.927	507.67
625.276	527.67
625.626	525.67
625.975	516.67
626.325	510.67
626.674	535.67
627.023	492.67
627.372	503.67
627.722	516.67
628.071	508.67
628.42	494.67
628.769	521.67
629.118	499.67
629.467	481.67
629.815	493.67
630.164	454.67
630.513	482.67
630.862	512.67
631.21	468.67
631.559	474.67
631.908	463.67
632.256	463.67
632.605	443.67
632.953	441.67
633.302	441.67
633.65	463.67
633.998	503.67
634.346	453.67
634.695	431.67
635.043	435.67
635.391	449.67
635.739	425.67
636.087	432.67
636.435	427.67
636.783	417.67
637.131	413.67
637.479	411.67
637.826	400.67
638.174	396.67
638.522	408.67
638.869	432.67
639.217	389.67
639.564	383.67
639.912	385.67
640.259	380.67
640.607	393.67
640.954	397.67
641.301	385.67
641.649	368.67
641.996	364.67
642.343	368.67
642.69	372.67
643.037	362.67
643.384	383.67
643.731	334.67
644.078	377.67
644.425	328.67
644.772	337.67
645.119	332.67
645.465	336.67
645.812	336.67
646.159	341.67
646.505	332.67
646.852	333.67
647.198	306.67
647.545	328.67
647.891	316.67
648.237	319.67
648.584	323.67
648.93	306.67
649.276	304.67
649.622	306.67
649.969	310.67
650.315	297.67
650.661	299.67
651.007	293.67
651.352	301.67
651.698	268.67
652.044	277.67
652.39	283.67
652.736	277.67
653.081	267.67
653.427	265.67
653.773	281.67
654.118	259.67
654.464	264.67
654.809	271.67
655.154	257.67
655.5	261.67
655.845	255.67
656.19	251.67
656.536	249.67
656.881	243.67
657.226	227.67
657.571	299.67
657.916	235.67
658.261	238.67
658.606	233.67
658.951	223.67
659.295	224.67
659.64	216.67
659.985	239.67
660.33	221.67
660.674	220.67
661.019	222.67
661.363	221.67
661.708	226.67
662.052	201.67
662.397	205.67
662.741	209.67
663.085	194.67
663.429	206.67
663.774	246.67
664.118	191.67
664.462	195.67
664.806	183.67
665.15	200.67
665.494	183.67
665.838	189.67
666.182	193.67
666.526	194.67
666.869	176.67
667.213	182.67
667.557	185.67
667.9	187.67
668.244	181.67
668.587	186.67
668.931	164.67
669.274	170.67
669.618	163.67
669.961	169.67
670.304	167.67
670.648	164.67
670.991	166.67
671.334	151.67
671.677	150.67
672.02	150.67
672.363	154.67
672.706	154.67
673.049	158.67
673.392	145.67
673.735	150.67
674.077	146.67
674.42	149.67
674.763	142.67
675.105	146.67
675.448	155.67
675.79	129.67
676.133	143.67
676.475	136.67
676.818	132.67
677.16	131.67
677.502	155.67
677.844	162.67
678.187	128.67
678.529	159.67
678.871	141.67
679.213	130.67
679.555	130.67
679.897	135.67
680.239	125.67
680.58	131.67
680.922	130.67
681.264	128.67
681.606	126.67
681.947	124.67
682.289	121.67
682.631	162.67
682.972	114.67
683.313	122.67
683.655	119.67
683.996	112.67
684.338	115.67
684.679	103.67
685.02	104.67
685.361	116.67
685.702	116.67
686.043	119.67
686.384	107.67
686.725	104.67
687.066	110.67
687.407	107.67
687.748	103.67
688.089	115.67
688.43	92.67
688.77	142.67
689.111	109.67
689.451	97.67
689.792	105.67
690.132	98.67
690.473	91.67
690.813	90.67
691.154	96.67
691.494	90.67
691.834	102.67
692.174	86.67
692.515	93.67
692.855	88.67
693.195	96.67
693.535	89.67
693.875	82.67
694.215	80.67
694.554	89.67
694.894	87.67
695.234	89.67
695.574	80.67
695.913	90.67
696.253	79.67
696.593	84.67
696.932	76.67
697.272	78.67
697.611	82.67
697.95	86.67
698.29	72.67
698.629	74.67
698.968	63.67
699.307	72.67
699.647	74.67
699.986	90.67
700.325	66.67
700.664	61.67
701.003	68.67
701.341	51.67
701.68	56.67
702.019	59.67
702.358	66.67
702.697	71.67
703.035	66.67
703.374	60.67
703.712	71.67
704.051	55.67
704.389	67.67
704.728	57.67
705.066	61.67
705.404	63.67
705.743	65.67
706.081	63.67
706.419	47.67
706.757	63.67
707.095	76.67
707.433	61.67
707.771	59.67
708.109	45.67
708.447	61.67
708.785	57.67
709.123	59.67
709.46	52.67
709.798	50.67
710.136	70.67
710.473	59.67
710.811	62.67
711.148	55.67
711.486	50.67
711.823	50.67
712.16	52.67
712.498	45.67
712.835	61.67
713.172	53.67
713.509	51.67
713.846	104.67
714.183	62.67
714.52	43.67
714.857	39.67
715.194	49.67
715.531	48.67
715.868	56.67
716.205	36.67
716.541	55.67
716.878	59.67
717.215	46.67
717.551	48.67
717.888	45.67
718.224	95.67
718.561	50.67
718.897	43.67
719.233	40.67
719.57	44.67
719.906	41.67
720.242	33.67
720.578	33.67
720.914	43.67
721.25	40.67
721.586	28.67
721.922	30.67
722.258	49.67
722.594	30.67
722.929	43.67
723.265	34.67
723.601	46.67
723.937	55.67
724.272	35.67
724.608	38.67
724.943	31.67
725.279	28.67
725.614	27.67
725.949	48.67
726.285	37.67
726.62	62.67
726.955	26.67
727.29	31.67
727.625	27.67
727.96	38.67
728.295	48.67
728.63	33.67
728.965	23.67
729.3	31.67
729.635	74.67
729.97	30.67
730.304	29.67
730.639	29.67
730.974	28.67
731.308	40.67
731.643	19.67
731.977	39.67
732.311	35.67
732.646	30.67
732.98	24.67
733.314	22.67
733.649	36.67
733.983	32.67
734.317	50.67
734.651	28.67
734.985	27.67
735.319	24.67
735.653	25.67
735.987	35.67
736.321	45.67
736.654	17.67
736.988	39.67
737.322	42.67
737.655	31.67
737.989	25.67
738.322	23.67
738.656	20.67
738.989	25.67
739.323	23.67
739.656	30.67
739.989	41.67
740.323	26.67
740.656	25.67
740.989	21.67
741.322	28.67
741.655	28.67
741.988	44.67
742.321	33.67
742.654	24.67
742.987	21.67
743.319	19.67
743.652	35.67
743.985	33.67
744.317	19.67
744.65	23.67
744.983	24.67
745.315	20.67
745.648	17.67
745.98	25.67
746.312	19.67
746.645	19.67
746.977	32.67
747.309	28.67
747.641	19.67
747.973	33.67
748.305	16.67
748.637	22.67
748.969	21.67
749.301	24.67
749.633	19.67
749.965	12.67
750.297	26.67
750.628	30.67
750.96	33.67
751.292	43.67
751.623	21.67
751.955	25.67
752.286	32.67
752.618	17.67
752.949	12.67
753.28	31.67
753.611	13.67
753.943	27.67
754.274	26.67
754.605	23.67
754.936	28.67
755.267	12.67
755.598	27.67
755.929	12.67
756.26	15.67
756.591	145.67
756.921	18.67
757.252	25.67
757.583	21.67
757.913	19.67
758.244	19.67
758.574	21.67
758.905	18.67
759.235	26.67
759.566	11.67
759.896	29.67
760.226	22.67
760.557	10.67
760.887	9.67
761.217	19.67
761.547	33.67
761.877	21.67
762.207	38.67
762.537	20.67
762.867	18.67
763.197	48.67
763.526	15.67
763.856	29.67
764.186	23.67
764.515	12.67
764.845	10.67
765.175	21.67
765.504	17.67
765.833	10.67
766.163	18.67
766.492	14.67
766.821	16.67
767.151	26.67
767.48	16.67
767.809	25.67
768.138	21.67
768.467	18.67
768.796	11.67
769.125	16.67
769.454	13.67
769.783	23.67
770.112	17.67
770.44	25.67
770.769	17.67
771.098	24.67
771.426	14.67
771.755	10.67
772.083	16.67
772.412	16.67
772.74	13.67
773.069	83.67
773.397	24.67
773.725	8.67
774.053	51.67
774.381	32.67
774.71	29.67
775.038	7.67
775.366	11.67
775.693	12.67
776.021	25.67
776.349	14.67
776.677	18.67
777.005	15.67
777.332	17.67
777.66	13.67
777.988	17.67
778.315	28.67
778.643	18.67
778.97	14.67
779.298	12.67
779.625	9.67
779.952	20.67
780.28	26.67
780.607	13.67
780.934	27.67
781.261	17.67
781.588	11.67
781.915	28.67
782.242	25.67
782.569	38.67
782.896	19.67
783.223	20.67
783.549	24.67
783.876	17.67
784.203	9.67
784.529	35.67
784.856	24.67
785.182	20.67
785.509	28.67
785.835	16.67
786.162	19.67
786.488	17.67
786.814	10.67
787.14	25.67
787.466	19.67
787.793	21.67
788.119	11.67
788.445	10.67
788.771	27.67
789.097	14.67
789.422	16.67
789.748	11.67
790.074	17.67
790.4	28.67
790.725	15.67
791.051	76.67
791.376	20.67
791.702	20.67
792.027	15.67
792.353	16.67
792.678	20.67
