Data from USB2G147421__14__12-43-40-433.txt Node

Date: Tue Jun 28 12:43:40 UTC 2022
User: yes
Spectrometer: USB2G14742
Trigger mode: 4
Integration Time (sec): 2.000000E0
Scans to average: 1
Electric dark correction enabled: true
Nonlinearity correction enabled: false
Boxcar width: 0
XAxis mode: Wavelengths
Number of Pixels in Spectrum: 2048
>>>>>Begin Spectral Data<<<<<
339.471	-152.06
339.856	-7.06
340.241	-5.06
340.625	-5.06
341.01	-2.06
341.395	33.94
341.779	9.94
342.163	9.94
342.548	16.94
342.932	20.94
343.317	5.94
343.701	5.94
344.085	12.94
344.469	8.94
344.853	6.94
345.238	4.94
345.622	11.94
346.006	21.94
346.39	1.94
346.774	5.94
347.157	14.94
347.541	11.94
347.925	3.94
348.309	7.94
348.693	27.94
349.076	10.94
349.46	28.94
349.843	17.94
350.227	8.94
350.61	69.94
350.994	17.94
351.377	13.94
351.761	32.94
352.144	21.94
352.527	5.94
352.91	13.94
353.294	10.94
353.677	17.94
354.06	9.94
354.443	97.94
354.826	0.94
355.209	3.94
355.592	3.94
355.975	7.94
356.358	15.94
356.74	17.94
357.123	8.94
357.506	8.94
357.889	12.94
358.271	24.94
358.654	11.94
359.036	16.94
359.419	11.94
359.801	11.94
360.184	7.94
360.566	16.94
360.948	25.94
361.331	11.94
361.713	5.94
362.095	25.94
362.477	8.94
362.859	9.94
363.241	12.94
363.623	9.94
364.005	23.94
364.387	23.94
364.769	14.94
365.151	18.94
365.533	32.94
365.915	25.94
366.296	13.94
366.678	57.94
367.06	15.94
367.441	19.94
367.823	29.94
368.204	8.94
368.586	6.94
368.967	17.94
369.348	15.94
369.73	23.94
370.111	10.94
370.492	8.94
370.873	15.94
371.255	43.94
371.636	11.94
372.017	16.94
372.398	17.94
372.779	16.94
373.16	11.94
373.54	5.94
373.921	10.94
374.302	8.94
374.683	13.94
375.064	12.94
375.444	10.94
375.825	18.94
376.205	14.94
376.586	23.94
376.966	17.94
377.347	15.94
377.727	12.94
378.108	13.94
378.488	9.94
378.868	4.94
379.248	16.94
379.629	11.94
380.009	45.94
380.389	12.94
380.769	16.94
381.149	12.94
381.529	24.94
381.909	23.94
382.289	17.94
382.668	91.94
383.048	16.94
383.428	10.94
383.808	9.94
384.187	7.94
384.567	17.94
384.946	10.94
385.326	16.94
385.705	18.94
386.085	9.94
386.464	18.94
386.844	17.94
387.223	14.94
387.602	11.94
387.981	18.94
388.361	15.94
388.74	18.94
389.119	3.94
389.498	15.94
389.877	17.94
390.256	10.94
390.635	19.94
391.013	16.94
391.392	2.94
391.771	54.94
392.15	20.94
392.528	16.94
392.907	2.94
393.286	13.94
393.664	24.94
394.043	11.94
394.421	13.94
394.8	13.94
395.178	7.94
395.556	21.94
395.935	20.94
396.313	15.94
396.691	15.94
397.069	4.94
397.447	8.94
397.825	13.94
398.203	13.94
398.581	24.94
398.959	14.94
399.337	17.94
399.715	70.94
400.093	11.94
400.471	12.94
400.848	5.94
401.226	18.94
401.604	12.94
401.981	13.94
402.359	11.94
402.736	4.94
403.114	38.94
403.491	23.94
403.868	26.94
404.246	53.94
404.623	26.94
405	10.94
405.377	13.94
405.755	14.94
406.132	7.94
406.509	5.94
406.886	17.94
407.263	25.94
407.64	8.94
408.017	21.94
408.393	21.94
408.77	20.94
409.147	11.94
409.524	11.94
409.9	15.94
410.277	15.94
410.653	13.94
411.03	15.94
411.406	8.94
411.783	36.94
412.159	20.94
412.536	20.94
412.912	4.94
413.288	31.94
413.664	9.94
414.04	6.94
414.417	15.94
414.793	15.94
415.169	16.94
415.545	26.94
415.921	12.94
416.297	28.94
416.672	8.94
417.048	7.94
417.424	11.94
417.8	44.94
418.175	11.94
418.551	9.94
418.927	8.94
419.302	78.94
419.678	29.94
420.053	7.94
420.429	27.94
420.804	13.94
421.179	9.94
421.554	14.94
421.93	8.94
422.305	63.94
422.68	18.94
423.055	16.94
423.43	13.94
423.805	10.94
424.18	11.94
424.555	12.94
424.93	14.94
425.305	6.94
425.68	5.94
426.054	10.94
426.429	20.94
426.804	18.94
427.178	24.94
427.553	15.94
427.927	66.94
428.302	13.94
428.676	15.94
429.051	19.94
429.425	9.94
429.799	20.94
430.174	17.94
430.548	13.94
430.922	25.94
431.296	12.94
431.67	25.94
432.044	32.94
432.418	9.94
432.792	9.94
433.166	8.94
433.54	20.94
433.914	24.94
434.287	20.94
434.661	10.94
435.035	12.94
435.408	14.94
435.782	15.94
436.156	21.94
436.529	62.94
436.903	15.94
437.276	11.94
437.649	29.94
438.023	55.94
438.396	18.94
438.769	18.94
439.142	19.94
439.515	29.94
439.889	19.94
440.262	17.94
440.635	33.94
441.008	31.94
441.38	25.94
441.753	25.94
442.126	17.94
442.499	18.94
442.872	74.94
443.244	59.94
443.617	11.94
443.99	20.94
444.362	19.94
444.735	16.94
445.107	23.94
445.48	52.94
445.852	13.94
446.224	23.94
446.597	21.94
446.969	26.94
447.341	31.94
447.713	27.94
448.085	15.94
448.457	27.94
448.829	17.94
449.201	28.94
449.573	31.94
449.945	20.94
450.317	20.94
450.689	27.94
451.061	21.94
451.432	18.94
451.804	31.94
452.176	44.94
452.547	22.94
452.919	26.94
453.29	24.94
453.662	24.94
454.033	17.94
454.404	39.94
454.776	23.94
455.147	21.94
455.518	23.94
455.889	30.94
456.26	25.94
456.631	31.94
457.002	25.94
457.373	21.94
457.744	39.94
458.115	28.94
458.486	32.94
458.857	20.94
459.228	27.94
459.598	16.94
459.969	22.94
460.34	31.94
460.71	18.94
461.081	21.94
461.451	32.94
461.822	28.94
462.192	12.94
462.563	19.94
462.933	19.94
463.303	17.94
463.673	27.94
464.044	29.94
464.414	26.94
464.784	29.94
465.154	18.94
465.524	14.94
465.894	25.94
466.264	20.94
466.634	24.94
467.003	18.94
467.373	12.94
467.743	36.94
468.113	28.94
468.482	25.94
468.852	27.94
469.221	31.94
469.591	22.94
469.96	28.94
470.33	16.94
470.699	74.94
471.068	9.94
471.438	19.94
471.807	26.94
472.176	27.94
472.545	46.94
472.914	9.94
473.283	28.94
473.652	23.94
474.021	37.94
474.39	22.94
474.759	21.94
475.128	17.94
475.497	15.94
475.865	11.94
476.234	20.94
476.603	11.94
476.971	16.94
477.34	17.94
477.708	35.94
478.077	17.94
478.445	18.94
478.814	18.94
479.182	24.94
479.55	18.94
479.919	17.94
480.287	21.94
480.655	35.94
481.023	8.94
481.391	19.94
481.759	16.94
482.127	17.94
482.495	19.94
482.863	26.94
483.231	8.94
483.598	16.94
483.966	25.94
484.334	24.94
484.701	21.94
485.069	28.94
485.437	49.94
485.804	20.94
486.172	24.94
486.539	22.94
486.906	15.94
487.274	32.94
487.641	23.94
488.008	30.94
488.375	40.94
488.743	25.94
489.11	26.94
489.477	14.94
489.844	20.94
490.211	20.94
490.578	17.94
490.945	25.94
491.311	27.94
491.678	25.94
492.045	39.94
492.412	15.94
492.778	21.94
493.145	33.94
493.511	21.94
493.878	22.94
494.244	18.94
494.611	26.94
494.977	23.94
495.344	17.94
495.71	70.94
496.076	15.94
496.442	30.94
496.808	16.94
497.175	35.94
497.541	16.94
497.907	31.94
498.273	45.94
498.638	48.94
499.004	28.94
499.37	29.94
499.736	64.94
500.102	18.94
500.467	38.94
500.833	25.94
501.199	35.94
501.564	28.94
501.93	25.94
502.295	44.94
502.661	29.94
503.026	34.94
503.391	29.94
503.757	32.94
504.122	24.94
504.487	27.94
504.852	42.94
505.217	34.94
505.582	26.94
505.947	36.94
506.312	35.94
506.677	32.94
507.042	29.94
507.407	42.94
507.772	60.94
508.136	57.94
508.501	41.94
508.866	34.94
509.23	53.94
509.595	34.94
509.959	39.94
510.324	31.94
510.688	53.94
511.053	48.94
511.417	99.94
511.781	41.94
512.146	30.94
512.51	63.94
512.874	80.94
513.238	36.94
513.602	43.94
513.966	50.94
514.33	42.94
514.694	34.94
515.058	34.94
515.422	57.94
515.785	53.94
516.149	39.94
516.513	51.94
516.876	40.94
517.24	45.94
517.604	41.94
517.967	52.94
518.331	43.94
518.694	48.94
519.057	51.94
519.421	50.94
519.784	48.94
520.147	68.94
520.51	74.94
520.873	43.94
521.237	52.94
521.6	50.94
521.963	41.94
522.326	52.94
522.688	45.94
523.051	50.94
523.414	53.94
523.777	126.94
524.14	48.94
524.502	52.94
524.865	56.94
525.228	61.94
525.59	57.94
525.953	66.94
526.315	53.94
526.677	51.94
527.04	86.94
527.402	57.94
527.764	47.94
528.127	51.94
528.489	59.94
528.851	58.94
529.213	51.94
529.575	54.94
529.937	75.94
530.299	47.94
530.661	60.94
531.023	65.94
531.384	52.94
531.746	57.94
532.108	60.94
532.47	54.94
532.831	57.94
533.193	53.94
533.554	66.94
533.916	55.94
534.277	69.94
534.639	63.94
535	63.94
535.361	62.94
535.723	76.94
536.084	68.94
536.445	86.94
536.806	127.94
537.167	93.94
537.528	65.94
537.889	74.94
538.25	63.94
538.611	70.94
538.972	67.94
539.333	57.94
539.693	90.94
540.054	111.94
540.415	64.94
540.775	60.94
541.136	73.94
541.496	69.94
541.857	78.94
542.217	69.94
542.578	76.94
542.938	89.94
543.298	65.94
543.658	79.94
544.019	77.94
544.379	72.94
544.739	77.94
545.099	71.94
545.459	70.94
545.819	73.94
546.179	66.94
546.539	107.94
546.899	74.94
547.258	90.94
547.618	80.94
547.978	95.94
548.337	83.94
548.697	71.94
549.056	99.94
549.416	83.94
549.775	85.94
550.135	85.94
550.494	77.94
550.854	101.94
551.213	87.94
551.572	95.94
551.931	84.94
552.29	87.94
552.649	92.94
553.008	79.94
553.367	119.94
553.726	103.94
554.085	85.94
554.444	190.94
554.803	82.94
555.162	95.94
555.52	88.94
555.879	94.94
556.238	90.94
556.596	83.94
556.955	92.94
557.313	94.94
557.672	89.94
558.03	88.94
558.388	91.94
558.747	107.94
559.105	90.94
559.463	88.94
559.821	80.94
560.179	94.94
560.537	84.94
560.896	85.94
561.253	88.94
561.611	83.94
561.969	99.94
562.327	84.94
562.685	98.94
563.043	95.94
563.4	98.94
563.758	96.94
564.116	101.94
564.473	93.94
564.831	90.94
565.188	100.94
565.546	134.94
565.903	100.94
566.26	92.94
566.617	98.94
566.975	116.94
567.332	100.94
567.689	92.94
568.046	95.94
568.403	112.94
568.76	101.94
569.117	101.94
569.474	106.94
569.831	93.94
570.188	108.94
570.544	105.94
570.901	107.94
571.258	126.94
571.614	97.94
571.971	113.94
572.328	100.94
572.684	106.94
573.04	121.94
573.397	98.94
573.753	124.94
574.109	114.94
574.466	110.94
574.822	99.94
575.178	111.94
575.534	115.94
575.89	123.94
576.246	109.94
576.602	114.94
576.958	113.94
577.314	109.94
577.67	108.94
578.026	105.94
578.381	113.94
578.737	105.94
579.093	111.94
579.448	127.94
579.804	139.94
580.159	112.94
580.515	106.94
580.87	114.94
581.226	114.94
581.581	119.94
581.936	112.94
582.291	108.94
582.647	103.94
583.002	127.94
583.357	115.94
583.712	118.94
584.067	99.94
584.422	111.94
584.777	116.94
585.131	113.94
585.486	107.94
585.841	107.94
586.196	129.94
586.55	110.94
586.905	110.94
587.26	104.94
587.614	103.94
587.969	141.94
588.323	112.94
588.677	126.94
589.032	119.94
589.386	118.94
589.74	147.94
590.094	125.94
590.449	134.94
590.803	144.94
591.157	116.94
591.511	137.94
591.865	124.94
592.219	128.94
592.573	113.94
592.926	108.94
593.28	109.94
593.634	140.94
593.988	108.94
594.341	102.94
594.695	117.94
595.048	102.94
595.402	102.94
595.755	100.94
596.109	124.94
596.462	125.94
596.815	107.94
597.169	124.94
597.522	104.94
597.875	148.94
598.228	118.94
598.581	106.94
598.934	131.94
599.287	101.94
599.64	114.94
599.993	111.94
600.346	104.94
600.698	105.94
601.051	107.94
601.404	102.94
601.757	95.94
602.109	116.94
602.462	105.94
602.814	106.94
603.167	107.94
603.519	102.94
603.871	116.94
604.224	103.94
604.576	93.94
604.928	123.94
605.28	105.94
605.633	99.94
605.985	113.94
606.337	103.94
606.689	98.94
607.041	122.94
607.392	90.94
607.744	104.94
608.096	97.94
608.448	94.94
608.8	88.94
609.151	97.94
609.503	91.94
609.854	98.94
610.206	128.94
610.557	102.94
610.909	85.94
611.26	109.94
611.612	95.94
611.963	83.94
612.314	111.94
612.665	95.94
613.016	94.94
613.367	97.94
613.719	106.94
614.07	90.94
614.42	92.94
614.771	86.94
615.122	102.94
615.473	99.94
615.824	88.94
616.174	101.94
616.525	87.94
616.876	84.94
617.226	87.94
617.577	81.94
617.927	83.94
618.278	85.94
618.628	142.94
618.979	92.94
619.329	79.94
619.679	103.94
620.029	93.94
620.379	75.94
620.729	89.94
621.08	85.94
621.43	104.94
621.779	104.94
622.129	80.94
622.479	83.94
622.829	81.94
623.179	77.94
623.529	71.94
623.878	80.94
624.228	69.94
624.577	72.94
624.927	72.94
625.276	69.94
625.626	84.94
625.975	88.94
626.325	76.94
626.674	116.94
627.023	69.94
627.372	73.94
627.722	94.94
628.071	92.94
628.42	76.94
628.769	111.94
629.118	71.94
629.467	70.94
629.815	72.94
630.164	59.94
630.513	77.94
630.862	104.94
631.21	71.94
631.559	64.94
631.908	63.94
632.256	58.94
632.605	59.94
632.953	64.94
633.302	62.94
633.65	78.94
633.998	123.94
634.346	79.94
634.695	55.94
635.043	55.94
635.391	83.94
635.739	54.94
636.087	59.94
636.435	76.94
636.783	66.94
637.131	52.94
637.479	70.94
637.826	59.94
638.174	56.94
638.522	57.94
638.869	105.94
639.217	55.94
639.564	59.94
639.912	52.94
640.259	57.94
640.607	56.94
640.954	75.94
641.301	64.94
641.649	51.94
641.996	55.94
642.343	62.94
642.69	62.94
643.037	64.94
643.384	77.94
643.731	51.94
644.078	81.94
644.425	46.94
644.772	46.94
645.119	47.94
645.465	47.94
645.812	49.94
646.159	62.94
646.505	56.94
646.852	74.94
647.198	46.94
647.545	48.94
647.891	63.94
648.237	56.94
648.584	55.94
648.93	49.94
649.276	55.94
649.622	61.94
649.969	69.94
650.315	51.94
650.661	60.94
651.007	57.94
651.352	58.94
651.698	38.94
652.044	44.94
652.39	52.94
652.736	49.94
653.081	46.94
653.427	46.94
653.773	51.94
654.118	48.94
654.464	39.94
654.809	53.94
655.154	35.94
655.5	48.94
655.845	34.94
656.19	38.94
656.536	35.94
656.881	43.94
657.226	41.94
657.571	89.94
657.916	40.94
658.261	37.94
658.606	41.94
658.951	27.94
659.295	30.94
659.64	28.94
659.985	39.94
660.33	29.94
660.674	28.94
661.019	37.94
661.363	37.94
661.708	39.94
662.052	27.94
662.397	31.94
662.741	37.94
663.085	36.94
663.429	43.94
663.774	66.94
664.118	22.94
664.462	31.94
664.806	22.94
665.15	46.94
665.494	21.94
665.838	26.94
666.182	34.94
666.526	39.94
666.869	25.94
667.213	30.94
667.557	36.94
667.9	40.94
668.244	33.94
668.587	43.94
668.931	25.94
669.274	24.94
669.618	23.94
669.961	27.94
670.304	30.94
670.648	30.94
670.991	20.94
671.334	13.94
671.677	22.94
672.02	22.94
672.363	22.94
672.706	29.94
673.049	34.94
673.392	17.94
673.735	21.94
674.077	25.94
674.42	23.94
674.763	23.94
675.105	25.94
675.448	30.94
675.79	21.94
676.133	30.94
676.475	25.94
676.818	21.94
677.16	14.94
677.502	29.94
677.844	42.94
678.187	16.94
678.529	49.94
678.871	28.94
679.213	24.94
679.555	21.94
679.897	26.94
680.239	22.94
680.58	20.94
680.922	34.94
681.264	39.94
681.606	22.94
681.947	24.94
682.289	27.94
682.631	60.94
682.972	20.94
683.313	24.94
683.655	28.94
683.996	19.94
684.338	24.94
684.679	15.94
685.02	23.94
685.361	24.94
685.702	31.94
686.043	24.94
686.384	20.94
686.725	20.94
687.066	39.94
687.407	18.94
687.748	18.94
688.089	39.94
688.43	22.94
688.77	60.94
689.111	34.94
689.451	28.94
689.792	25.94
690.132	25.94
690.473	26.94
690.813	17.94
691.154	30.94
691.494	19.94
691.834	25.94
692.174	18.94
692.515	21.94
692.855	21.94
693.195	28.94
693.535	26.94
693.875	23.94
694.215	27.94
694.554	35.94
694.894	28.94
695.234	27.94
695.574	20.94
695.913	26.94
696.253	24.94
696.593	32.94
696.932	28.94
697.272	28.94
697.611	8.94
697.95	33.94
698.29	17.94
698.629	21.94
698.968	17.94
699.307	14.94
699.647	27.94
699.986	34.94
700.325	28.94
700.664	19.94
701.003	21.94
701.341	17.94
701.68	9.94
702.019	15.94
702.358	19.94
702.697	25.94
703.035	33.94
703.374	19.94
703.712	36.94
704.051	17.94
704.389	27.94
704.728	17.94
705.066	19.94
705.404	22.94
705.743	23.94
706.081	22.94
706.419	12.94
706.757	23.94
707.095	30.94
707.433	27.94
707.771	18.94
708.109	8.94
708.447	25.94
708.785	27.94
709.123	27.94
709.46	19.94
709.798	13.94
710.136	33.94
710.473	28.94
710.811	24.94
711.148	33.94
711.486	19.94
711.823	11.94
712.16	19.94
712.498	13.94
712.835	28.94
713.172	19.94
713.509	35.94
713.846	79.94
714.183	40.94
714.52	17.94
714.857	16.94
715.194	22.94
715.531	21.94
715.868	31.94
716.205	14.94
716.541	23.94
716.878	31.94
717.215	24.94
717.551	27.94
717.888	21.94
718.224	68.94
718.561	25.94
718.897	19.94
719.233	12.94
719.57	20.94
719.906	13.94
720.242	11.94
720.578	15.94
720.914	16.94
721.25	24.94
721.586	12.94
721.922	10.94
722.258	24.94
722.594	13.94
722.929	19.94
723.265	20.94
723.601	22.94
723.937	30.94
724.272	8.94
724.608	19.94
724.943	18.94
725.279	7.94
725.614	16.94
725.949	25.94
726.285	16.94
726.62	37.94
726.955	11.94
727.29	17.94
727.625	15.94
727.96	20.94
728.295	28.94
728.63	24.94
728.965	14.94
729.3	16.94
729.635	62.94
729.97	17.94
730.304	11.94
730.639	13.94
730.974	12.94
731.308	28.94
731.643	11.94
731.977	27.94
732.311	18.94
732.646	14.94
732.98	19.94
733.314	8.94
733.649	25.94
733.983	23.94
734.317	45.94
734.651	11.94
734.985	18.94
735.319	11.94
735.653	13.94
735.987	24.94
736.321	32.94
736.654	5.94
736.988	29.94
737.322	33.94
737.655	23.94
737.989	24.94
738.322	14.94
738.656	6.94
738.989	17.94
739.323	13.94
739.656	21.94
739.989	29.94
740.323	9.94
740.656	11.94
740.989	8.94
741.322	18.94
741.655	19.94
741.988	33.94
742.321	26.94
742.654	14.94
742.987	12.94
743.319	12.94
743.652	22.94
743.985	26.94
744.317	12.94
744.65	11.94
744.983	24.94
745.315	7.94
745.648	12.94
745.98	14.94
746.312	11.94
746.645	15.94
746.977	29.94
747.309	22.94
747.641	16.94
747.973	29.94
748.305	11.94
748.637	10.94
748.969	14.94
749.301	25.94
749.633	12.94
749.965	9.94
750.297	16.94
750.628	25.94
750.96	17.94
751.292	31.94
751.623	11.94
751.955	15.94
752.286	21.94
752.618	10.94
752.949	4.94
753.28	21.94
753.611	6.94
753.943	16.94
754.274	19.94
754.605	16.94
754.936	19.94
755.267	8.94
755.598	24.94
755.929	18.94
756.26	14.94
756.591	136.94
756.921	14.94
757.252	14.94
757.583	11.94
757.913	14.94
758.244	12.94
758.574	14.94
758.905	14.94
759.235	25.94
759.566	6.94
759.896	30.94
760.226	18.94
760.557	3.94
760.887	8.94
761.217	23.94
761.547	28.94
761.877	18.94
762.207	26.94
762.537	13.94
762.867	15.94
763.197	42.94
763.526	13.94
763.856	23.94
764.186	19.94
764.515	2.94
764.845	7.94
765.175	17.94
765.504	16.94
765.833	5.94
766.163	6.94
766.492	11.94
766.821	15.94
767.151	17.94
767.48	11.94
767.809	20.94
768.138	14.94
768.467	12.94
768.796	6.94
769.125	11.94
769.454	12.94
769.783	15.94
770.112	12.94
770.44	21.94
770.769	10.94
771.098	21.94
771.426	16.94
771.755	10.94
772.083	9.94
772.412	19.94
772.74	10.94
773.069	79.94
773.397	24.94
773.725	4.94
774.053	47.94
774.381	28.94
774.71	25.94
775.038	4.94
775.366	13.94
775.693	11.94
776.021	17.94
776.349	9.94
776.677	16.94
777.005	12.94
777.332	16.94
777.66	4.94
777.988	16.94
778.315	24.94
778.643	13.94
778.97	7.94
779.298	9.94
779.625	13.94
779.952	13.94
780.28	16.94
780.607	13.94
780.934	20.94
781.261	20.94
781.588	11.94
781.915	26.94
782.242	20.94
782.569	38.94
782.896	22.94
783.223	15.94
783.549	20.94
783.876	17.94
784.203	9.94
784.529	37.94
784.856	22.94
785.182	21.94
785.509	23.94
785.835	16.94
786.162	14.94
786.488	15.94
786.814	6.94
787.14	22.94
787.466	19.94
787.793	23.94
788.119	11.94
788.445	11.94
788.771	21.94
789.097	11.94
789.422	13.94
789.748	5.94
790.074	13.94
790.4	27.94
790.725	15.94
791.051	82.94
791.376	15.94
791.702	19.94
792.027	17.94
792.353	14.94
792.678	19.94
793.004	26.94
793.329	16.94
793.654	11.94
793.979	16.94
794.304	16.94
794.629	19.94
794.954	12.94
795.279	21.94
795.604	21.94
795.929	13.94
796.254	5.94
796.579	7.94
796.903	76.94
797.228	8.94
797.553	41.94
797.877	13.94
798.202	26.94
798.526	15.94
798.851	11.94
799.175	18.94
799.499	16.94
799.823	13.94
800.148	5.94
800.472	1.94
800.796	13.94
801.12	20.94
801.444	12.94
801.768	9.94
802.092	17.94
802.416	14.94
802.74	25.94
803.063	19.94
803.387	15.94
803.711	94.94
804.034	20.94
804.358	14.94
804.681	23.94
805.005	20.94
805.328	15.94
805.652	7.94
