Data from USB2G147421__10__12-43-32-242.txt Node

Date: Tue Jun 28 12:43:32 UTC 2022
User: yes
Spectrometer: USB2G14742
Trigger mode: 4
Integration Time (sec): 2.000000E0
Scans to average: 1
Electric dark correction enabled: true
Nonlinearity correction enabled: false
Boxcar width: 0
XAxis mode: Wavelengths
Number of Pixels in Spectrum: 2048
>>>>>Begin Spectral Data<<<<<
339.471	-151.44
339.856	-5.44
340.241	-5.44
340.625	-2.44
341.01	0.56
341.395	42.56
341.779	6.56
342.163	10.56
342.548	13.56
342.932	13.56
343.317	9.56
343.701	9.56
344.085	10.56
344.469	2.56
344.853	6.56
345.238	0.56
345.622	10.56
346.006	27.56
346.39	3.56
346.774	13.56
347.157	11.56
347.541	8.56
347.925	7.56
348.309	6.56
348.693	32.56
349.076	12.56
349.46	22.56
349.843	15.56
350.227	10.56
350.61	68.56
350.994	13.56
351.377	13.56
351.761	31.56
352.144	21.56
352.527	7.56
352.91	12.56
353.294	10.56
353.677	15.56
354.06	19.56
354.443	93.56
354.826	7.56
355.209	4.56
355.592	8.56
355.975	11.56
356.358	20.56
356.74	19.56
357.123	9.56
357.506	12.56
357.889	14.56
358.271	22.56
358.654	12.56
359.036	12.56
359.419	10.56
359.801	10.56
360.184	7.56
360.566	16.56
360.948	23.56
361.331	9.56
361.713	11.56
362.095	21.56
362.477	6.56
362.859	13.56
363.241	16.56
363.623	9.56
364.005	20.56
364.387	26.56
364.769	17.56
365.151	15.56
365.533	33.56
365.915	25.56
366.296	13.56
366.678	61.56
367.06	13.56
367.441	9.56
367.823	25.56
368.204	11.56
368.586	6.56
368.967	18.56
369.348	21.56
369.73	18.56
370.111	7.56
370.492	5.56
370.873	13.56
371.255	44.56
371.636	17.56
372.017	17.56
372.398	20.56
372.779	21.56
373.16	15.56
373.54	6.56
373.921	13.56
374.302	9.56
374.683	15.56
375.064	15.56
375.444	4.56
375.825	12.56
376.205	13.56
376.586	20.56
376.966	12.56
377.347	18.56
377.727	14.56
378.108	16.56
378.488	8.56
378.868	4.56
379.248	19.56
379.629	12.56
380.009	42.56
380.389	10.56
380.769	16.56
381.149	9.56
381.529	30.56
381.909	29.56
382.289	16.56
382.668	90.56
383.048	15.56
383.428	5.56
383.808	6.56
384.187	12.56
384.567	22.56
384.946	7.56
385.326	20.56
385.705	22.56
386.085	10.56
386.464	23.56
386.844	16.56
387.223	17.56
387.602	10.56
387.981	16.56
388.361	14.56
388.74	19.56
389.119	10.56
389.498	16.56
389.877	16.56
390.256	6.56
390.635	23.56
391.013	17.56
391.392	8.56
391.771	47.56
392.15	19.56
392.528	18.56
392.907	8.56
393.286	17.56
393.664	23.56
394.043	10.56
394.421	18.56
394.8	9.56
395.178	10.56
395.556	19.56
395.935	18.56
396.313	14.56
396.691	20.56
397.069	10.56
397.447	9.56
397.825	16.56
398.203	13.56
398.581	25.56
398.959	13.56
399.337	13.56
399.715	71.56
400.093	8.56
400.471	7.56
400.848	7.56
401.226	13.56
401.604	8.56
401.981	12.56
402.359	12.56
402.736	9.56
403.114	46.56
403.491	24.56
403.868	23.56
404.246	55.56
404.623	28.56
405	16.56
405.377	8.56
405.755	16.56
406.132	8.56
406.509	5.56
406.886	12.56
407.263	24.56
407.64	5.56
408.017	21.56
408.393	17.56
408.77	14.56
409.147	17.56
409.524	16.56
409.9	21.56
410.277	20.56
410.653	17.56
411.03	21.56
411.406	7.56
411.783	38.56
412.159	20.56
412.536	24.56
412.912	9.56
413.288	29.56
413.664	11.56
414.04	4.56
414.417	16.56
414.793	17.56
415.169	17.56
415.545	32.56
415.921	15.56
416.297	34.56
416.672	11.56
417.048	13.56
417.424	13.56
417.8	41.56
418.175	14.56
418.551	3.56
418.927	10.56
419.302	74.56
419.678	30.56
420.053	9.56
420.429	21.56
420.804	9.56
421.179	6.56
421.554	12.56
421.93	9.56
422.305	70.56
422.68	22.56
423.055	19.56
423.43	16.56
423.805	10.56
424.18	7.56
424.555	16.56
424.93	13.56
425.305	7.56
425.68	13.56
426.054	11.56
426.429	15.56
426.804	18.56
427.178	24.56
427.553	10.56
427.927	64.56
428.302	21.56
428.676	14.56
429.051	13.56
429.425	11.56
429.799	26.56
430.174	14.56
430.548	6.56
430.922	24.56
431.296	11.56
431.67	23.56
432.044	25.56
432.418	9.56
432.792	11.56
433.166	2.56
433.54	17.56
433.914	22.56
434.287	12.56
434.661	10.56
435.035	16.56
435.408	13.56
435.782	18.56
436.156	20.56
436.529	57.56
436.903	13.56
437.276	10.56
437.649	28.56
438.023	62.56
438.396	16.56
438.769	13.56
439.142	18.56
439.515	30.56
439.889	26.56
440.262	23.56
440.635	31.56
441.008	25.56
441.38	27.56
441.753	21.56
442.126	18.56
442.499	23.56
442.872	75.56
443.244	59.56
443.617	14.56
443.99	26.56
444.362	22.56
444.735	14.56
445.107	24.56
445.48	51.56
445.852	18.56
446.224	21.56
446.597	17.56
446.969	23.56
447.341	33.56
447.713	25.56
448.085	20.56
448.457	24.56
448.829	16.56
449.201	27.56
449.573	26.56
449.945	26.56
450.317	23.56
450.689	25.56
451.061	22.56
451.432	18.56
451.804	34.56
452.176	39.56
452.547	22.56
452.919	22.56
453.29	32.56
453.662	23.56
454.033	22.56
454.404	31.56
454.776	21.56
455.147	23.56
455.518	25.56
455.889	32.56
456.26	29.56
456.631	32.56
457.002	18.56
457.373	20.56
457.744	37.56
458.115	25.56
458.486	34.56
458.857	19.56
459.228	29.56
459.598	21.56
459.969	18.56
460.34	33.56
460.71	14.56
461.081	16.56
461.451	38.56
461.822	29.56
462.192	18.56
462.563	17.56
462.933	22.56
463.303	18.56
463.673	37.56
464.044	25.56
464.414	23.56
464.784	25.56
465.154	25.56
465.524	23.56
465.894	23.56
466.264	20.56
466.634	25.56
467.003	24.56
467.373	19.56
467.743	35.56
468.113	24.56
468.482	17.56
468.852	24.56
469.221	26.56
469.591	20.56
469.96	34.56
470.33	16.56
470.699	76.56
471.068	12.56
471.438	22.56
471.807	34.56
472.176	30.56
472.545	36.56
472.914	13.56
473.283	28.56
473.652	18.56
474.021	42.56
474.39	23.56
474.759	28.56
475.128	14.56
475.497	16.56
475.865	16.56
476.234	20.56
476.603	18.56
476.971	16.56
477.34	20.56
477.708	31.56
478.077	17.56
478.445	25.56
478.814	14.56
479.182	18.56
479.55	23.56
479.919	17.56
480.287	16.56
480.655	36.56
481.023	9.56
481.391	13.56
481.759	21.56
482.127	23.56
482.495	18.56
482.863	22.56
483.231	11.56
483.598	22.56
483.966	26.56
484.334	23.56
484.701	31.56
485.069	23.56
485.437	53.56
485.804	15.56
486.172	25.56
486.539	24.56
486.906	21.56
487.274	31.56
487.641	21.56
488.008	30.56
488.375	36.56
488.743	25.56
489.11	24.56
489.477	18.56
489.844	18.56
490.211	17.56
490.578	21.56
490.945	32.56
491.311	24.56
491.678	22.56
492.045	37.56
492.412	17.56
492.778	22.56
493.145	32.56
493.511	19.56
493.878	26.56
494.244	18.56
494.611	28.56
494.977	20.56
495.344	17.56
495.71	66.56
496.076	20.56
496.442	35.56
496.808	18.56
497.175	35.56
497.541	15.56
497.907	30.56
498.273	42.56
498.638	43.56
499.004	24.56
499.37	28.56
499.736	57.56
500.102	20.56
500.467	39.56
500.833	26.56
501.199	41.56
501.564	27.56
501.93	22.56
502.295	44.56
502.661	32.56
503.026	35.56
503.391	28.56
503.757	35.56
504.122	29.56
504.487	29.56
504.852	44.56
505.217	37.56
505.582	31.56
505.947	32.56
506.312	37.56
506.677	32.56
507.042	32.56
507.407	46.56
507.772	61.56
508.136	45.56
508.501	42.56
508.866	36.56
509.23	52.56
509.595	37.56
509.959	41.56
510.324	28.56
510.688	54.56
511.053	45.56
511.417	101.56
511.781	34.56
512.146	34.56
512.51	63.56
512.874	80.56
513.238	36.56
513.602	43.56
513.966	51.56
514.33	40.56
514.694	35.56
515.058	35.56
515.422	57.56
515.785	64.56
516.149	47.56
516.513	57.56
516.876	47.56
517.24	43.56
517.604	42.56
517.967	46.56
518.331	38.56
518.694	44.56
519.057	53.56
519.421	48.56
519.784	55.56
520.147	61.56
520.51	72.56
520.873	49.56
521.237	61.56
521.6	50.56
521.963	46.56
522.326	53.56
522.688	44.56
523.051	50.56
523.414	54.56
523.777	124.56
524.14	50.56
524.502	54.56
524.865	60.56
525.228	60.56
525.59	60.56
525.953	64.56
526.315	56.56
526.677	58.56
527.04	93.56
527.402	63.56
527.764	56.56
528.127	52.56
528.489	62.56
528.851	60.56
529.213	50.56
529.575	50.56
529.937	80.56
530.299	53.56
530.661	62.56
531.023	63.56
531.384	60.56
531.746	57.56
532.108	56.56
532.47	57.56
532.831	56.56
533.193	55.56
533.554	62.56
533.916	56.56
534.277	67.56
534.639	54.56
535	57.56
535.361	63.56
535.723	72.56
536.084	71.56
536.445	82.56
536.806	135.56
537.167	101.56
537.528	65.56
537.889	79.56
538.25	72.56
538.611	67.56
538.972	68.56
539.333	59.56
539.693	93.56
540.054	112.56
540.415	61.56
540.775	61.56
541.136	71.56
541.496	60.56
541.857	83.56
542.217	71.56
542.578	73.56
542.938	87.56
543.298	75.56
543.658	79.56
544.019	79.56
544.379	77.56
544.739	73.56
545.099	72.56
545.459	80.56
545.819	76.56
546.179	67.56
546.539	99.56
546.899	72.56
547.258	94.56
547.618	77.56
547.978	92.56
548.337	96.56
548.697	77.56
549.056	100.56
549.416	84.56
549.775	87.56
550.135	80.56
550.494	69.56
550.854	105.56
551.213	97.56
551.572	89.56
551.931	82.56
552.29	81.56
552.649	94.56
553.008	86.56
553.367	116.56
553.726	104.56
554.085	81.56
554.444	179.56
554.803	84.56
555.162	92.56
555.52	88.56
555.879	92.56
556.238	89.56
556.596	83.56
556.955	98.56
557.313	99.56
557.672	101.56
558.03	87.56
558.388	88.56
558.747	114.56
559.105	93.56
559.463	90.56
559.821	79.56
560.179	103.56
560.537	93.56
560.896	94.56
561.253	87.56
561.611	82.56
561.969	98.56
562.327	94.56
562.685	98.56
563.043	90.56
563.4	83.56
563.758	102.56
564.116	106.56
564.473	98.56
564.831	91.56
565.188	98.56
565.546	129.56
565.903	101.56
566.26	102.56
566.617	91.56
566.975	115.56
567.332	104.56
567.689	97.56
568.046	102.56
568.403	116.56
568.76	100.56
569.117	109.56
569.474	103.56
569.831	100.56
570.188	105.56
570.544	105.56
570.901	102.56
571.258	134.56
571.614	97.56
571.971	107.56
572.328	102.56
572.684	106.56
573.04	118.56
573.397	98.56
573.753	128.56
574.109	99.56
574.466	108.56
574.822	98.56
575.178	119.56
575.534	110.56
575.89	121.56
576.246	111.56
576.602	115.56
576.958	113.56
577.314	104.56
577.67	106.56
578.026	110.56
578.381	114.56
578.737	104.56
579.093	116.56
579.448	120.56
579.804	133.56
580.159	119.56
580.515	108.56
580.87	118.56
581.226	113.56
581.581	127.56
581.936	119.56
582.291	113.56
582.647	115.56
583.002	128.56
583.357	111.56
583.712	112.56
584.067	113.56
584.422	107.56
584.777	112.56
585.131	112.56
585.486	107.56
585.841	111.56
586.196	129.56
586.55	113.56
586.905	111.56
587.26	109.56
587.614	104.56
587.969	136.56
588.323	113.56
588.677	130.56
589.032	125.56
589.386	118.56
589.74	152.56
590.094	119.56
590.449	127.56
590.803	147.56
591.157	117.56
591.511	139.56
591.865	129.56
592.219	137.56
592.573	103.56
592.926	110.56
593.28	106.56
593.634	146.56
593.988	106.56
594.341	101.56
594.695	118.56
595.048	100.56
595.402	101.56
595.755	106.56
596.109	126.56
596.462	124.56
596.815	104.56
597.169	131.56
597.522	117.56
597.875	151.56
598.228	122.56
598.581	105.56
598.934	134.56
599.287	100.56
599.64	120.56
599.993	105.56
600.346	102.56
600.698	104.56
601.051	107.56
601.404	110.56
601.757	103.56
602.109	116.56
602.462	105.56
602.814	95.56
603.167	102.56
603.519	101.56
603.871	117.56
604.224	102.56
604.576	92.56
604.928	130.56
605.28	112.56
605.633	104.56
605.985	114.56
606.337	93.56
606.689	96.56
607.041	122.56
607.392	93.56
607.744	104.56
608.096	98.56
608.448	95.56
608.8	97.56
609.151	103.56
609.503	93.56
609.854	95.56
610.206	130.56
610.557	103.56
610.909	91.56
611.26	106.56
611.612	93.56
611.963	89.56
612.314	105.56
612.665	100.56
613.016	92.56
613.367	91.56
613.719	109.56
614.07	85.56
614.42	90.56
614.771	90.56
615.122	98.56
615.473	90.56
615.824	93.56
616.174	105.56
616.525	74.56
616.876	76.56
617.226	90.56
617.577	81.56
617.927	82.56
618.278	83.56
618.628	144.56
618.979	96.56
619.329	90.56
619.679	106.56
620.029	92.56
620.379	78.56
620.729	96.56
621.08	86.56
621.43	104.56
621.779	93.56
622.129	86.56
622.479	82.56
622.829	78.56
623.179	74.56
623.529	72.56
623.878	78.56
624.228	70.56
624.577	71.56
624.927	69.56
625.276	66.56
625.626	88.56
625.975	89.56
626.325	76.56
626.674	115.56
627.023	65.56
627.372	71.56
627.722	96.56
628.071	97.56
628.42	81.56
628.769	115.56
629.118	67.56
629.467	81.56
629.815	81.56
630.164	63.56
630.513	74.56
630.862	101.56
631.21	76.56
631.559	66.56
631.908	62.56
632.256	58.56
632.605	64.56
632.953	66.56
633.302	56.56
633.65	83.56
633.998	129.56
634.346	74.56
634.695	54.56
635.043	65.56
635.391	89.56
635.739	54.56
636.087	57.56
636.435	80.56
636.783	68.56
637.131	54.56
637.479	76.56
637.826	54.56
638.174	59.56
638.522	60.56
638.869	106.56
639.217	53.56
639.564	67.56
639.912	52.56
640.259	55.56
640.607	60.56
640.954	65.56
641.301	60.56
641.649	50.56
641.996	53.56
642.343	66.56
642.69	57.56
643.037	61.56
643.384	83.56
643.731	52.56
644.078	87.56
644.425	51.56
644.772	56.56
645.119	49.56
645.465	54.56
645.812	44.56
646.159	58.56
646.505	58.56
646.852	79.56
647.198	45.56
647.545	49.56
647.891	66.56
648.237	57.56
648.584	55.56
648.93	47.56
649.276	53.56
649.622	60.56
649.969	67.56
650.315	50.56
650.661	62.56
651.007	50.56
651.352	59.56
651.698	40.56
652.044	45.56
652.39	62.56
652.736	49.56
653.081	41.56
653.427	41.56
653.773	56.56
654.118	50.56
654.464	40.56
654.809	46.56
655.154	44.56
655.5	48.56
655.845	35.56
656.19	41.56
656.536	36.56
656.881	39.56
657.226	39.56
657.571	88.56
657.916	35.56
658.261	30.56
658.606	44.56
658.951	26.56
659.295	30.56
659.64	25.56
659.985	39.56
660.33	31.56
660.674	39.56
661.019	39.56
661.363	35.56
661.708	38.56
662.052	21.56
662.397	32.56
662.741	36.56
663.085	34.56
663.429	44.56
663.774	73.56
664.118	22.56
664.462	25.56
664.806	24.56
665.15	50.56
665.494	30.56
665.838	24.56
666.182	33.56
666.526	33.56
666.869	22.56
667.213	27.56
667.557	36.56
667.9	44.56
668.244	35.56
668.587	43.56
668.931	23.56
669.274	27.56
669.618	30.56
669.961	31.56
670.304	27.56
670.648	31.56
670.991	29.56
671.334	20.56
671.677	19.56
672.02	20.56
672.363	21.56
672.706	26.56
673.049	37.56
673.392	24.56
673.735	25.56
674.077	16.56
674.42	27.56
674.763	20.56
675.105	30.56
675.448	33.56
675.79	19.56
676.133	30.56
676.475	19.56
676.818	20.56
677.16	23.56
677.502	31.56
677.844	44.56
678.187	14.56
678.529	52.56
678.871	34.56
679.213	25.56
679.555	28.56
679.897	27.56
680.239	26.56
680.58	24.56
680.922	38.56
681.264	42.56
681.606	31.56
681.947	27.56
682.289	25.56
682.631	62.56
682.972	27.56
683.313	29.56
683.655	24.56
683.996	22.56
684.338	17.56
684.679	12.56
685.02	18.56
685.361	28.56
685.702	29.56
686.043	29.56
686.384	22.56
686.725	21.56
687.066	37.56
687.407	19.56
687.748	18.56
688.089	40.56
688.43	19.56
688.77	61.56
689.111	24.56
689.451	27.56
689.792	33.56
690.132	23.56
690.473	25.56
690.813	19.56
691.154	26.56
691.494	23.56
691.834	26.56
692.174	19.56
692.515	26.56
692.855	19.56
693.195	32.56
693.535	30.56
693.875	20.56
694.215	26.56
694.554	31.56
694.894	21.56
695.234	24.56
695.574	24.56
695.913	27.56
696.253	28.56
696.593	29.56
696.932	28.56
697.272	21.56
697.611	19.56
697.95	34.56
698.29	19.56
698.629	28.56
698.968	19.56
699.307	23.56
699.647	23.56
699.986	33.56
700.325	29.56
700.664	17.56
701.003	17.56
701.341	17.56
701.68	15.56
702.019	18.56
702.358	15.56
702.697	26.56
703.035	31.56
703.374	21.56
703.712	32.56
704.051	11.56
704.389	23.56
704.728	20.56
705.066	19.56
705.404	25.56
705.743	22.56
706.081	19.56
706.419	11.56
706.757	23.56
707.095	33.56
707.433	27.56
707.771	23.56
708.109	10.56
708.447	23.56
708.785	26.56
709.123	27.56
709.46	17.56
709.798	14.56
710.136	40.56
710.473	26.56
710.811	28.56
711.148	34.56
711.486	23.56
711.823	18.56
712.16	20.56
712.498	17.56
712.835	30.56
713.172	17.56
713.509	28.56
713.846	74.56
714.183	36.56
714.52	18.56
714.857	20.56
715.194	20.56
715.531	15.56
715.868	31.56
716.205	17.56
716.541	21.56
716.878	32.56
717.215	21.56
717.551	30.56
717.888	19.56
718.224	75.56
718.561	21.56
718.897	24.56
719.233	13.56
719.57	21.56
719.906	15.56
720.242	15.56
720.578	16.56
720.914	19.56
721.25	21.56
721.586	13.56
721.922	15.56
722.258	28.56
722.594	22.56
722.929	24.56
723.265	17.56
723.601	21.56
723.937	30.56
724.272	16.56
724.608	28.56
724.943	14.56
725.279	7.56
725.614	14.56
725.949	21.56
726.285	19.56
726.62	39.56
726.955	12.56
727.29	19.56
727.625	13.56
727.96	19.56
728.295	37.56
728.63	28.56
728.965	11.56
729.3	18.56
729.635	60.56
729.97	18.56
730.304	12.56
730.639	12.56
730.974	18.56
731.308	26.56
731.643	7.56
731.977	33.56
732.311	22.56
732.646	12.56
732.98	13.56
733.314	10.56
733.649	22.56
733.983	23.56
734.317	43.56
734.651	15.56
734.985	10.56
735.319	14.56
735.653	14.56
735.987	26.56
736.321	37.56
736.654	5.56
736.988	27.56
737.322	31.56
737.655	21.56
737.989	20.56
738.322	13.56
738.656	15.56
738.989	19.56
739.323	18.56
739.656	20.56
739.989	30.56
740.323	11.56
740.656	13.56
740.989	14.56
741.322	17.56
741.655	19.56
741.988	38.56
742.321	30.56
742.654	17.56
742.987	12.56
743.319	17.56
743.652	22.56
743.985	34.56
744.317	10.56
744.65	16.56
744.983	20.56
745.315	11.56
745.648	14.56
745.98	18.56
746.312	12.56
746.645	16.56
746.977	26.56
747.309	18.56
747.641	14.56
747.973	27.56
748.305	7.56
748.637	6.56
748.969	17.56
749.301	29.56
749.633	11.56
749.965	6.56
750.297	16.56
750.628	26.56
750.96	22.56
751.292	32.56
751.623	17.56
751.955	18.56
752.286	29.56
752.618	11.56
752.949	8.56
753.28	24.56
753.611	7.56
753.943	17.56
754.274	19.56
754.605	15.56
754.936	21.56
755.267	6.56
755.598	23.56
755.929	10.56
756.26	16.56
756.591	147.56
756.921	21.56
757.252	19.56
757.583	13.56
757.913	18.56
758.244	14.56
758.574	20.56
758.905	12.56
759.235	27.56
759.566	4.56
759.896	31.56
760.226	19.56
760.557	4.56
760.887	8.56
761.217	20.56
761.547	27.56
761.877	24.56
762.207	29.56
762.537	14.56
762.867	19.56
763.197	41.56
763.526	14.56
763.856	27.56
764.186	15.56
764.515	3.56
764.845	1.56
765.175	19.56
765.504	18.56
765.833	5.56
766.163	17.56
766.492	10.56
766.821	18.56
767.151	20.56
767.48	11.56
767.809	25.56
768.138	21.56
768.467	18.56
768.796	14.56
769.125	12.56
769.454	16.56
769.783	16.56
770.112	12.56
770.44	21.56
770.769	11.56
771.098	27.56
771.426	13.56
771.755	9.56
772.083	10.56
772.412	15.56
772.74	11.56
773.069	84.56
773.397	19.56
773.725	6.56
774.053	48.56
774.381	27.56
774.71	25.56
775.038	4.56
775.366	10.56
775.693	15.56
776.021	24.56
776.349	11.56
776.677	12.56
777.005	12.56
777.332	10.56
777.66	2.56
777.988	19.56
778.315	24.56
778.643	14.56
778.97	9.56
779.298	7.56
779.625	9.56
779.952	13.56
780.28	21.56
780.607	17.56
780.934	25.56
781.261	17.56
781.588	8.56
781.915	22.56
782.242	23.56
782.569	38.56
782.896	24.56
783.223	17.56
783.549	18.56
783.876	16.56
784.203	6.56
784.529	34.56
784.856	17.56
785.182	19.56
785.509	26.56
785.835	15.56
786.162	11.56
786.488	11.56
786.814	8.56
787.14	24.56
787.466	22.56
787.793	29.56
788.119	5.56
788.445	13.56
788.771	25.56
789.097	15.56
789.422	17.56
789.748	13.56
790.074	11.56
790.4	24.56
790.725	20.56
791.051	86.56
791.376	19.56
791.702	19.56
792.027	16.56
792.353	18.56
792.678	18.56
793.004	34.56
793.329	21.56
793.654	12.56
793.979	15.56
794.304	11.56
794.629	27.56
794.954	11.56
795.279	17.56
795.604	28.56
795.929	19.56
796.254	11.56
796.579	2.56
796.903	69.56
797.228	13.56
797.553	38.56
797.877	11.56
798.202	22.56
798.526	16.56
798.851	12.56
799.175	16.56
799.499	17.56
799.823	8.56
800.148	9.56
800.472	9.56
800.796	11.56
801.12	17.56
801.444	21.56
801.768	18.56
802.092	17.56
802.416	16.56
802.74	23.56
803.063	18.56
803.387	20.56
803.711	92.56
804.034	20.56
804.358	13.56
804.681	25.56
805.005	22.56
